# Two-Theta Intensity Error
10.000000 595.000000 24.392622
10.020432 581.000000 24.103942
10.040864 565.000000 23.769729
10.061296 549.000000 23.430749
10.081728 532.000000 23.065125
10.102160 549.000000 23.430749
10.122592 526.000000 22.934690
10.143024 579.000000 24.062419
10.163456 568.000000 23.832751
10.183888 550.000000 23.452079
10.204320 552.000000 23.494680
10.224752 525.000000 22.912878
10.245184 524.000000 22.891046
10.265616 543.000000 23.302360
10.286048 562.000000 23.706539
10.306480 521.000000 22.825424
10.326912 583.000000 24.145393
10.347344 562.000000 23.706539
10.367776 503.000000 22.427661
10.388208 548.000000 23.409400
10.408640 552.000000 23.494680
10.429072 525.000000 22.912878
10.449504 521.000000 22.825424
10.469936 561.000000 23.685439
10.490368 562.000000 23.706539
10.510800 525.000000 22.912878
10.531232 519.000000 22.781571
10.551664 536.000000 23.151674
10.572096 531.000000 23.043437
10.592528 514.000000 22.671568
10.612960 513.000000 22.649503
10.633392 498.000000 22.315914
10.653824 503.000000 22.427661
10.674256 513.000000 22.649503
10.694688 487.000000 22.068076
10.715120 494.000000 22.226111
10.735552 470.000000 21.679483
10.755984 537.000000 23.173260
10.776416 518.000000 22.759613
10.796848 519.000000 22.781571
10.817280 485.000000 22.022716
10.837712 480.000000 21.908902
10.858144 496.000000 22.271057
10.878576 481.000000 21.931712
10.899008 509.000000 22.561028
10.919440 468.000000 21.633308
10.939872 444.000000 21.071308
10.960304 481.000000 21.931712
10.980736 516.000000 22.715633
11.001168 500.000000 22.360680
11.021600 472.000000 21.725561
11.042032 480.000000 21.908902
11.062464 489.000000 22.113344
11.082896 503.000000 22.427661
11.103327 450.000000 21.213203
11.123759 454.000000 21.307276
11.144191 475.000000 21.794495
11.164623 446.000000 21.118712
11.185055 445.000000 21.095023
11.205487 468.000000 21.633308
11.225919 470.000000 21.679483
11.246351 462.000000 21.494185
11.266783 487.000000 22.068076
11.287215 472.000000 21.725561
11.307647 450.000000 21.213203
11.328079 480.000000 21.908902
11.348511 490.000000 22.135944
11.368943 429.000000 20.712315
11.389375 446.000000 21.118712
11.409807 445.000000 21.095023
11.430239 466.000000 21.587033
11.450671 422.000000 20.542639
11.471103 474.000000 21.771541
11.491535 461.000000 21.470911
11.511967 438.000000 20.928450
11.532399 403.000000 20.074860
11.552831 398.000000 19.949937
11.573263 439.000000 20.952327
11.593695 435.000000 20.856654
11.614127 434.000000 20.832667
11.634559 439.000000 20.952327
11.654991 419.000000 20.469489
11.675423 428.000000 20.688161
11.695855 449.000000 21.189620
11.716287 445.000000 21.095023
11.736719 397.000000 19.924859
11.757151 464.000000 21.540659
11.777583 444.000000 21.071308
11.798015 416.000000 20.396078
11.818447 442.000000 21.023796
11.838879 410.000000 20.248457
11.859311 424.000000 20.591260
11.879743 420.000000 20.493902
11.900175 431.000000 20.760539
11.920607 442.000000 21.023796
11.941039 458.000000 21.400935
11.961471 474.000000 21.771541
11.981903 483.000000 21.977261
12.002335 467.000000 21.610183
12.022767 514.000000 22.671568
12.043199 516.000000 22.715633
12.063631 489.000000 22.113344
12.084063 459.000000 21.424285
12.104495 417.000000 20.420578
12.124927 447.000000 21.142375
12.145359 375.000000 19.364917
12.165791 374.000000 19.339080
12.186223 428.000000 20.688161
12.206655 413.000000 20.322401
12.227087 403.000000 20.074860
12.247519 402.000000 20.049938
12.267951 362.000000 19.026298
12.288383 402.000000 20.049938
12.308815 379.000000 19.467922
12.329247 356.000000 18.867962
12.349679 374.000000 19.339080
12.370111 384.000000 19.595918
12.390543 381.000000 19.519221
12.410975 348.000000 18.654758
12.431407 314.000000 17.720045
12.451839 381.000000 19.519221
12.472271 373.000000 19.313208
12.492703 313.000000 17.691806
12.513135 360.000000 18.973666
12.533567 347.000000 18.627936
12.553999 345.000000 18.574176
12.574431 323.000000 17.972201
12.594863 301.000000 17.349352
12.615295 338.000000 18.384776
12.635727 368.000000 19.183326
12.656159 337.000000 18.357560
12.676591 331.000000 18.193405
12.697023 317.000000 17.804494
12.717455 311.000000 17.635192
12.737887 329.000000 18.138357
12.758319 336.000000 18.330303
12.778751 359.000000 18.947295
12.799183 312.000000 17.663522
12.819615 317.000000 17.804494
12.840047 330.000000 18.165902
12.860479 312.000000 17.663522
12.880911 315.000000 17.748239
12.901343 300.000000 17.320508
12.921775 315.000000 17.748239
12.942207 353.000000 18.788294
12.962639 309.000000 17.578396
12.983071 326.000000 18.055470
13.003503 335.000000 18.303005
13.023935 303.000000 17.406895
13.044367 315.000000 17.748239
13.064799 290.000000 17.029386
13.085231 275.000000 16.583124
13.105663 292.000000 17.088007
13.126095 298.000000 17.262677
13.146527 291.000000 17.058722
13.166959 301.000000 17.349352
13.187391 287.000000 16.941074
13.207823 303.000000 17.406895
13.228255 261.000000 16.155494
13.248687 289.000000 17.000000
13.269119 281.000000 16.763055
13.289550 307.000000 17.521415
13.309982 289.000000 17.000000
13.330414 319.000000 17.860571
13.350846 263.000000 16.217275
13.371278 257.000000 16.031220
13.391710 272.000000 16.492423
13.412142 268.000000 16.370706
13.432574 289.000000 17.000000
13.453006 293.000000 17.117243
13.473438 273.000000 16.522712
13.493870 254.000000 15.937377
13.514302 268.000000 16.370706
13.534734 272.000000 16.492423
13.555166 301.000000 17.349352
13.575598 274.000000 16.552945
13.596030 264.000000 16.248077
13.616462 259.000000 16.093477
13.636894 276.000000 16.613248
13.657326 254.000000 15.937377
13.677758 258.000000 16.062378
13.698190 275.000000 16.583124
13.718622 278.000000 16.673332
13.739054 312.000000 17.663522
13.759486 363.000000 19.052559
13.779918 342.000000 18.493242
13.800350 340.000000 18.439089
13.820782 365.000000 19.104973
13.841214 336.000000 18.330303
13.861646 308.000000 17.549929
13.882078 274.000000 16.552945
13.902510 235.000000 15.329710
13.922942 241.000000 15.524175
13.943374 246.000000 15.684387
13.963806 217.000000 14.730920
13.984238 226.000000 15.033296
14.004670 246.000000 15.684387
14.025102 256.000000 16.000000
14.045534 243.000000 15.588457
14.065966 240.000000 15.491933
14.086398 262.000000 16.186414
14.106830 256.000000 16.000000
14.127262 279.000000 16.703293
14.147694 289.000000 17.000000
14.168126 283.000000 16.822604
14.188558 233.000000 15.264338
14.208990 254.000000 15.937377
14.229422 237.000000 15.394804
14.249854 240.000000 15.491933
14.270286 240.000000 15.491933
14.290718 218.000000 14.764823
14.311150 272.000000 16.492423
14.331582 241.000000 15.524175
14.352014 213.000000 14.594520
14.372446 259.000000 16.093477
14.392878 217.000000 14.730920
14.413310 253.000000 15.905974
14.433742 233.000000 15.264338
14.454174 204.000000 14.282857
14.474606 228.000000 15.099669
14.495038 206.000000 14.352700
14.515470 216.000000 14.696938
14.535902 241.000000 15.524175
14.556334 211.000000 14.525839
14.576766 230.000000 15.165751
14.597198 215.000000 14.662878
14.617630 223.000000 14.933185
14.638062 202.000000 14.212670
14.658494 213.000000 14.594520
14.678926 196.000000 14.000000
14.699358 221.000000 14.866069
14.719790 219.000000 14.798649
14.740222 175.000000 13.228757
14.760654 248.000000 15.748016
14.781086 214.000000 14.628739
14.801518 228.000000 15.099669
14.821950 209.000000 14.456832
14.842382 245.000000 15.652476
14.862814 243.000000 15.588457
14.883246 205.000000 14.317821
14.903678 197.000000 14.035669
14.924110 216.000000 14.696938
14.944542 236.000000 15.362291
14.964974 207.000000 14.387495
14.985406 193.000000 13.892444
15.005838 207.000000 14.387495
15.026270 241.000000 15.524175
15.046702 215.000000 14.662878
15.067134 236.000000 15.362291
15.087566 253.000000 15.905974
15.107998 279.000000 16.703293
15.128430 297.000000 17.233688
15.148862 364.000000 19.078784
15.169294 361.000000 19.000000
15.189726 361.000000 19.000000
15.210158 310.000000 17.606817
15.230590 268.000000 16.370706
15.251022 236.000000 15.362291
15.271454 213.000000 14.594520
15.291886 210.000000 14.491377
15.312318 215.000000 14.662878
15.332750 178.000000 13.341664
15.353182 170.000000 13.038405
15.373614 191.000000 13.820275
15.394046 193.000000 13.892444
15.414478 180.000000 13.416408
15.434910 207.000000 14.387495
15.455342 217.000000 14.730920
15.475773 201.000000 14.177447
15.496205 190.000000 13.784049
15.516637 194.000000 13.928388
15.537069 163.000000 12.767145
15.557501 184.000000 13.564660
15.577933 179.000000 13.379088
15.598365 162.000000 12.727922
15.618797 194.000000 13.928388
15.639229 179.000000 13.379088
15.659661 206.000000 14.352700
15.680093 158.000000 12.569805
15.700525 165.000000 12.845233
15.720957 162.000000 12.727922
15.741389 204.000000 14.282857
15.761821 178.000000 13.341664
15.782253 163.000000 12.767145
15.802685 165.000000 12.845233
15.823117 166.000000 12.884099
15.843549 172.000000 13.114877
15.863981 154.000000 12.409674
15.884413 169.000000 13.000000
15.904845 151.000000 12.288206
15.925277 189.000000 13.747727
15.945709 162.000000 12.727922
15.966141 174.000000 13.190906
15.986573 147.000000 12.124356
16.007005 174.000000 13.190906
16.027437 157.000000 12.529964
16.047869 152.000000 12.328828
16.068301 160.000000 12.649111
16.088733 170.000000 13.038405
16.109165 164.000000 12.806248
16.129597 171.000000 13.076697
16.150029 163.000000 12.767145
16.170461 147.000000 12.124356
16.190893 163.000000 12.767145
16.211325 168.000000 12.961481
16.231757 161.000000 12.688578
16.252189 160.000000 12.649111
16.272621 182.000000 13.490738
16.293053 160.000000 12.649111
16.313485 141.000000 11.874342
16.333917 172.000000 13.114877
16.354349 168.000000 12.961481
16.374781 169.000000 13.000000
16.395213 173.000000 13.152946
16.415645 178.000000 13.341664
16.436077 163.000000 12.767145
16.456509 156.000000 12.489996
16.476941 159.000000 12.609520
16.497373 136.000000 11.661904
16.517805 159.000000 12.609520
16.538237 166.000000 12.884099
16.558669 133.000000 11.532563
16.579101 171.000000 13.076697
16.599533 138.000000 11.747340
16.619965 137.000000 11.704700
16.640397 146.000000 12.083046
16.660829 156.000000 12.489996
16.681261 146.000000 12.083046
16.701693 160.000000 12.649111
16.722125 150.000000 12.247449
16.742557 150.000000 12.247449
16.762989 152.000000 12.328828
16.783421 159.000000 12.609520
16.803853 141.000000 11.874342
16.824285 162.000000 12.727922
16.844717 145.000000 12.041595
16.865149 137.000000 11.704700
16.885581 135.000000 11.618950
16.906013 161.000000 12.688578
16.926445 142.000000 11.916375
16.946877 165.000000 12.845233
16.967309 157.000000 12.529964
16.987741 158.000000 12.569805
17.008173 131.000000 11.445523
17.028605 151.000000 12.288206
17.049037 157.000000 12.529964
17.069469 151.000000 12.288206
17.089901 147.000000 12.124356
17.110333 157.000000 12.529964
17.130765 134.000000 11.575837
17.151197 174.000000 13.190906
17.171629 130.000000 11.401754
17.192061 157.000000 12.529964
17.212493 133.000000 11.532563
17.232925 150.000000 12.247449
17.253357 161.000000 12.688578
17.273789 127.000000 11.269428
17.294221 138.000000 11.747340
17.314653 128.000000 11.313708
17.335085 137.000000 11.704700
17.355517 159.000000 12.609520
17.375949 122.000000 11.045361
17.396381 136.000000 11.661904
17.416813 125.000000 11.180340
17.437245 149.000000 12.206556
17.457677 120.000000 10.954451
17.478109 135.000000 11.618950
17.498541 130.000000 11.401754
17.518973 136.000000 11.661904
17.539405 124.000000 11.135529
17.559837 119.000000 10.908712
17.580269 126.000000 11.224972
17.600701 130.000000 11.401754
17.621133 117.000000 10.816654
17.641565 134.000000 11.575837
17.661996 115.000000 10.723805
17.682428 135.000000 11.618950
17.702860 118.000000 10.862780
17.723292 142.000000 11.916375
17.743724 119.000000 10.908712
17.764156 122.000000 11.045361
17.784588 111.000000 10.535654
17.805020 115.000000 10.723805
17.825452 122.000000 11.045361
17.845884 115.000000 10.723805
17.866316 135.000000 11.618950
17.886748 123.000000 11.090537
17.907180 131.000000 11.445523
17.927612 130.000000 11.401754
17.948044 132.000000 11.489125
17.968476 123.000000 11.090537
17.988908 133.000000 11.532563
18.009340 129.000000 11.357817
18.029772 116.000000 10.770330
18.050204 136.000000 11.661904
18.070636 137.000000 11.704700
18.091068 126.000000 11.224972
18.111500 141.000000 11.874342
18.131932 134.000000 11.575837
18.152364 152.000000 12.328828
18.172796 149.000000 12.206556
18.193228 147.000000 12.124356
18.213660 166.000000 12.884099
18.234092 139.000000 11.789826
18.254524 152.000000 12.328828
18.274956 139.000000 11.789826
18.295388 143.000000 11.958261
18.315820 144.000000 12.000000
18.336252 162.000000 12.727922
18.356684 139.000000 11.789826
18.377116 161.000000 12.688578
18.397548 156.000000 12.489996
18.417980 156.000000 12.489996
18.438412 174.000000 13.190906
18.458844 152.000000 12.328828
18.479276 176.000000 13.266499
18.499708 170.000000 13.038405
18.520140 185.000000 13.601471
18.540572 241.000000 15.524175
18.561004 260.000000 16.124515
18.581436 308.000000 17.549929
18.601868 396.000000 19.899749
18.622300 528.000000 22.978251
18.642732 729.000000 27.000000
18.663164 1017.000000 31.890437
18.683596 1284.000000 35.832946
18.704028 1680.000000 40.987803
18.724460 1901.000000 43.600459
18.744892 1723.000000 41.509035
18.765324 1469.000000 38.327536
18.785756 1263.000000 35.538711
18.806188 965.000000 31.064449
18.826620 748.000000 27.349589
18.847052 672.000000 25.922963
18.867484 635.000000 25.199206
18.887916 630.000000 25.099801
18.908348 745.000000 27.294688
18.928780 841.000000 29.000000
18.949212 1097.000000 33.120990
18.969644 1388.000000 37.255872
18.990076 1868.000000 43.220366
19.010508 2257.000000 47.507894
19.030940 2356.000000 48.538644
19.051372 2205.000000 46.957428
19.071804 1621.000000 40.261644
19.092236 1193.000000 34.539832
19.112668 799.000000 28.266588
19.133100 481.000000 21.931712
19.153532 397.000000 19.924859
19.173964 266.000000 16.309506
19.194396 222.000000 14.899664
19.214828 194.000000 13.928388
19.235260 168.000000 12.961481
19.255692 147.000000 12.124356
19.276124 132.000000 11.489125
19.296556 135.000000 11.618950
19.316988 130.000000 11.401754
19.337420 130.000000 11.401754
19.357852 137.000000 11.704700
19.378284 117.000000 10.816654
19.398716 108.000000 10.392305
19.419148 124.000000 11.135529
19.439580 105.000000 10.246951
19.460012 112.000000 10.583005
19.480444 90.000000 9.486833
19.500876 105.000000 10.246951
19.521308 95.000000 9.746794
19.541740 95.000000 9.746794
19.562172 107.000000 10.344080
19.582604 115.000000 10.723805
19.603036 99.000000 9.949874
19.623468 96.000000 9.797959
19.643900 88.000000 9.380832
19.664332 78.000000 8.831761
19.684764 99.000000 9.949874
19.705196 96.000000 9.797959
19.725628 88.000000 9.380832
19.746060 104.000000 10.198039
19.766492 96.000000 9.797959
19.786924 108.000000 10.392305
19.807356 108.000000 10.392305
19.827788 120.000000 10.954451
19.848219 143.000000 11.958261
19.868651 157.000000 12.529964
19.889083 133.000000 11.532563
19.909515 110.000000 10.488088
19.929947 118.000000 10.862780
19.950379 105.000000 10.246951
19.970811 93.000000 9.643651
19.991243 98.000000 9.899495
20.011675 83.000000 9.110434
20.032107 90.000000 9.486833
20.052539 104.000000 10.198039
20.072971 83.000000 9.110434
20.093403 77.000000 8.774964
20.113835 94.000000 9.695360
20.134267 78.000000 8.831761
20.154699 78.000000 8.831761
20.175131 95.000000 9.746794
20.195563 77.000000 8.774964
20.215995 116.000000 10.770330
20.236427 90.000000 9.486833
20.256859 66.000000 8.124038
20.277291 83.000000 9.110434
20.297723 74.000000 8.602325
20.318155 89.000000 9.433981
20.338587 76.000000 8.717798
20.359019 83.000000 9.110434
20.379451 78.000000 8.831761
20.399883 88.000000 9.380832
20.420315 85.000000 9.219544
20.440747 82.000000 9.055385
20.461179 73.000000 8.544004
20.481611 67.000000 8.185353
20.502043 74.000000 8.602325
20.522475 101.000000 10.049876
20.542907 104.000000 10.198039
20.563339 79.000000 8.888194
20.583771 91.000000 9.539392
20.604203 84.000000 9.165151
20.624635 84.000000 9.165151
20.645067 109.000000 10.440307
20.665499 65.000000 8.062258
20.685931 68.000000 8.246211
20.706363 84.000000 9.165151
20.726795 77.000000 8.774964
20.747227 85.000000 9.219544
20.767659 86.000000 9.273618
20.788091 74.000000 8.602325
20.808523 76.000000 8.717798
20.828955 74.000000 8.602325
20.849387 64.000000 8.000000
20.869819 85.000000 9.219544
20.890251 81.000000 9.000000
20.910683 71.000000 8.426150
20.931115 85.000000 9.219544
20.951547 58.000000 7.615773
20.971979 67.000000 8.185353
20.992411 91.000000 9.539392
21.012843 73.000000 8.544004
21.033275 79.000000 8.888194
21.053707 71.000000 8.426150
21.074139 76.000000 8.717798
21.094571 81.000000 9.000000
21.115003 55.000000 7.416198
21.135435 61.000000 7.810250
21.155867 58.000000 7.615773
21.176299 79.000000 8.888194
21.196731 71.000000 8.426150
21.217163 69.000000 8.306624
21.237595 61.000000 7.810250
21.258027 81.000000 9.000000
21.278459 66.000000 8.124038
21.298891 71.000000 8.426150
21.319323 81.000000 9.000000
21.339755 74.000000 8.602325
21.360187 72.000000 8.485281
21.380619 62.000000 7.874008
21.401051 64.000000 8.000000
21.421483 79.000000 8.888194
21.441915 72.000000 8.485281
21.462347 76.000000 8.717798
21.482779 70.000000 8.366600
21.503211 51.000000 7.141428
21.523643 78.000000 8.831761
21.544075 84.000000 9.165151
21.564507 74.000000 8.602325
21.584939 80.000000 8.944272
21.605371 89.000000 9.433981
21.625803 66.000000 8.124038
21.646235 60.000000 7.745967
21.666667 88.000000 9.380832
21.687099 79.000000 8.888194
21.707531 73.000000 8.544004
21.727963 75.000000 8.660254
21.748395 77.000000 8.774964
21.768827 70.000000 8.366600
21.789259 70.000000 8.366600
21.809691 81.000000 9.000000
21.830123 70.000000 8.366600
21.850555 78.000000 8.831761
21.870987 61.000000 7.810250
21.891419 64.000000 8.000000
21.911851 74.000000 8.602325
21.932283 68.000000 8.246211
21.952715 54.000000 7.348469
21.973147 66.000000 8.124038
21.993579 74.000000 8.602325
22.014011 62.000000 7.874008
22.034442 73.000000 8.544004
22.054874 62.000000 7.874008
22.075306 65.000000 8.062258
22.095738 71.000000 8.426150
22.116170 57.000000 7.549834
22.136602 59.000000 7.681146
22.157034 74.000000 8.602325
22.177466 56.000000 7.483315
22.197898 62.000000 7.874008
22.218330 70.000000 8.366600
22.238762 75.000000 8.660254
22.259194 66.000000 8.124038
22.279626 64.000000 8.000000
22.300058 56.000000 7.483315
22.320490 63.000000 7.937254
22.340922 72.000000 8.485281
22.361354 82.000000 9.055385
22.381786 81.000000 9.000000
22.402218 65.000000 8.062258
22.422650 57.000000 7.549834
22.443082 49.000000 7.000000
22.463514 65.000000 8.062258
22.483946 55.000000 7.416198
22.504378 72.000000 8.485281
22.524810 43.000000 6.557439
22.545242 52.000000 7.211103
22.565674 79.000000 8.888194
22.586106 55.000000 7.416198
22.606538 77.000000 8.774964
22.626970 58.000000 7.615773
22.647402 67.000000 8.185353
22.667834 60.000000 7.745967
22.688266 74.000000 8.602325
22.708698 63.000000 7.937254
22.729130 64.000000 8.000000
22.749562 67.000000 8.185353
22.769994 62.000000 7.874008
22.790426 51.000000 7.141428
22.810858 52.000000 7.211103
22.831290 69.000000 8.306624
22.851722 68.000000 8.246211
22.872154 48.000000 6.928203
22.892586 77.000000 8.774964
22.913018 62.000000 7.874008
22.933450 75.000000 8.660254
22.953882 69.000000 8.306624
22.974314 61.000000 7.810250
22.994746 59.000000 7.681146
23.015178 42.000000 6.480741
23.035610 68.000000 8.246211
23.056042 68.000000 8.246211
23.076474 57.000000 7.549834
23.096906 54.000000 7.348469
23.117338 64.000000 8.000000
23.137770 45.000000 6.708204
23.158202 70.000000 8.366600
23.178634 57.000000 7.549834
23.199066 59.000000 7.681146
23.219498 46.000000 6.782330
23.239930 56.000000 7.483315
23.260362 70.000000 8.366600
23.280794 67.000000 8.185353
23.301226 58.000000 7.615773
23.321658 74.000000 8.602325
23.342090 61.000000 7.810250
