# Two-Theta Intensity Error
10.000100 595.000000 24.392622
10.020500 581.000000 24.103942
10.041000 565.000000 23.769729
10.061400 549.000000 23.430749
10.081800 532.000000 23.065125
10.102300 549.000000 23.430749
10.122700 526.000000 22.934690
10.143100 579.000000 24.062419
10.163600 568.000000 23.832751
10.184000 550.000000 23.452079
10.204400 552.000000 23.494680
10.224900 525.000000 22.912878
10.245300 524.000000 22.891046
10.265700 543.000000 23.302360
10.286200 562.000000 23.706539
10.306600 521.000000 22.825424
10.327000 583.000000 24.145393
10.347400 562.000000 23.706539
10.367900 503.000000 22.427661
10.388300 548.000000 23.409400
10.408700 552.000000 23.494680
10.429200 525.000000 22.912878
10.449600 521.000000 22.825424
10.470000 561.000000 23.685439
10.490500 562.000000 23.706539
10.510900 525.000000 22.912878
10.531300 519.000000 22.781571
10.551800 536.000000 23.151674
10.572200 531.000000 23.043437
10.592600 514.000000 22.671568
10.613100 513.000000 22.649503
10.633500 498.000000 22.315914
10.653900 503.000000 22.427661
10.674400 513.000000 22.649503
10.694800 487.000000 22.068076
10.715200 494.000000 22.226111
10.735700 470.000000 21.679483
10.756100 537.000000 23.173260
10.776500 518.000000 22.759613
10.797000 519.000000 22.781571
10.817400 485.000000 22.022716
10.837800 480.000000 21.908902
10.858300 496.000000 22.271057
10.878700 481.000000 21.931712
10.899100 509.000000 22.561028
10.919600 468.000000 21.633308
10.940000 444.000000 21.071308
10.960400 481.000000 21.931712
10.980800 516.000000 22.715633
11.001300 500.000000 22.360680
11.021700 472.000000 21.725561
11.042100 480.000000 21.908902
11.062600 489.000000 22.113344
11.083000 503.000000 22.427661
11.103400 450.000000 21.213203
11.123900 454.000000 21.307276
11.144300 475.000000 21.794495
11.164700 446.000000 21.118712
11.185200 445.000000 21.095023
11.205600 468.000000 21.633308
11.226000 470.000000 21.679483
11.246500 462.000000 21.494185
11.266900 487.000000 22.068076
11.287300 472.000000 21.725561
11.307800 450.000000 21.213203
11.328200 480.000000 21.908902
11.348600 490.000000 22.135944
11.369100 429.000000 20.712315
11.389500 446.000000 21.118712
11.409900 445.000000 21.095023
11.430400 466.000000 21.587033
11.450800 422.000000 20.542639
11.471200 474.000000 21.771541
11.491700 461.000000 21.470911
11.512100 438.000000 20.928450
11.532500 403.000000 20.074860
11.552900 398.000000 19.949937
11.573400 439.000000 20.952327
11.593800 435.000000 20.856654
11.614200 434.000000 20.832667
11.634700 439.000000 20.952327
11.655100 419.000000 20.469489
11.675500 428.000000 20.688161
11.696000 449.000000 21.189620
11.716400 445.000000 21.095023
11.736800 397.000000 19.924859
11.757300 464.000000 21.540659
11.777700 444.000000 21.071308
11.798100 416.000000 20.396078
11.818600 442.000000 21.023796
11.839000 410.000000 20.248457
11.859400 424.000000 20.591260
11.879900 420.000000 20.493902
11.900300 431.000000 20.760539
11.920700 442.000000 21.023796
11.941200 458.000000 21.400935
11.961600 474.000000 21.771541
11.982000 483.000000 21.977261
12.002500 467.000000 21.610183
12.022900 514.000000 22.671568
12.043300 516.000000 22.715633
12.063800 489.000000 22.113344
12.084200 459.000000 21.424285
12.104600 417.000000 20.420578
12.125100 447.000000 21.142375
12.145500 375.000000 19.364917
12.165900 374.000000 19.339080
12.186300 428.000000 20.688161
12.206800 413.000000 20.322401
12.227200 403.000000 20.074860
12.247600 402.000000 20.049938
12.268100 362.000000 19.026298
12.288500 402.000000 20.049938
12.308900 379.000000 19.467922
12.329400 356.000000 18.867962
12.349800 374.000000 19.339080
12.370200 384.000000 19.595918
12.390700 381.000000 19.519221
12.411100 348.000000 18.654758
12.431500 314.000000 17.720045
12.452000 381.000000 19.519221
12.472400 373.000000 19.313208
12.492800 313.000000 17.691806
12.513300 360.000000 18.973666
12.533700 347.000000 18.627936
12.554100 345.000000 18.574176
12.574600 323.000000 17.972201
12.595000 301.000000 17.349352
12.615400 338.000000 18.384776
12.635900 368.000000 19.183326
12.656300 337.000000 18.357560
12.676700 331.000000 18.193405
12.697200 317.000000 17.804494
12.717600 311.000000 17.635192
12.738000 329.000000 18.138357
12.758500 336.000000 18.330303
12.778900 359.000000 18.947295
12.799300 312.000000 17.663522
12.819700 317.000000 17.804494
12.840200 330.000000 18.165902
12.860600 312.000000 17.663522
12.881000 315.000000 17.748239
12.901500 300.000000 17.320508
12.921900 315.000000 17.748239
12.942300 353.000000 18.788294
12.962800 309.000000 17.578396
12.983200 326.000000 18.055470
13.003600 335.000000 18.303005
13.024100 303.000000 17.406895
13.044500 315.000000 17.748239
13.064900 290.000000 17.029386
13.085400 275.000000 16.583124
13.105800 292.000000 17.088007
13.126200 298.000000 17.262677
13.146700 291.000000 17.058722
13.167100 301.000000 17.349352
13.187500 287.000000 16.941074
13.208000 303.000000 17.406895
13.228400 261.000000 16.155494
13.248800 289.000000 17.000000
13.269300 281.000000 16.763055
13.289700 307.000000 17.521415
13.310100 289.000000 17.000000
13.330600 319.000000 17.860571
13.351000 263.000000 16.217275
13.371400 257.000000 16.031220
13.391800 272.000000 16.492423
13.412300 268.000000 16.370706
13.432700 289.000000 17.000000
13.453100 293.000000 17.117243
13.473600 273.000000 16.522712
13.494000 254.000000 15.937377
13.514400 268.000000 16.370706
13.534900 272.000000 16.492423
13.555300 301.000000 17.349352
13.575700 274.000000 16.552945
13.596200 264.000000 16.248077
13.616600 259.000000 16.093477
13.637000 276.000000 16.613248
13.657500 254.000000 15.937377
13.677900 258.000000 16.062378
13.698300 275.000000 16.583124
13.718800 278.000000 16.673332
13.739200 312.000000 17.663522
13.759600 363.000000 19.052559
13.780100 342.000000 18.493242
13.800500 340.000000 18.439089
13.820900 365.000000 19.104973
13.841400 336.000000 18.330303
13.861800 308.000000 17.549929
13.882200 274.000000 16.552945
13.902700 235.000000 15.329710
13.923100 241.000000 15.524175
13.943500 246.000000 15.684387
13.964000 217.000000 14.730920
13.984400 226.000000 15.033296
14.004800 246.000000 15.684387
14.025200 256.000000 16.000000
14.045700 243.000000 15.588457
14.066100 240.000000 15.491933
14.086500 262.000000 16.186414
14.107000 256.000000 16.000000
14.127400 279.000000 16.703293
14.147800 289.000000 17.000000
14.168300 283.000000 16.822604
14.188700 233.000000 15.264338
14.209100 254.000000 15.937377
14.229600 237.000000 15.394804
14.250000 240.000000 15.491933
14.270400 240.000000 15.491933
14.290900 218.000000 14.764823
14.311300 272.000000 16.492423
14.331700 241.000000 15.524175
14.352200 213.000000 14.594520
14.372600 259.000000 16.093477
14.393000 217.000000 14.730920
14.413500 253.000000 15.905974
14.433900 233.000000 15.264338
14.454300 204.000000 14.282857
14.474800 228.000000 15.099669
14.495200 206.000000 14.352700
14.515600 216.000000 14.696938
14.536100 241.000000 15.524175
14.556500 211.000000 14.525839
14.576900 230.000000 15.165751
14.597400 215.000000 14.662878
14.617800 223.000000 14.933185
14.638200 202.000000 14.212670
14.658600 213.000000 14.594520
14.679100 196.000000 14.000000
14.699500 221.000000 14.866069
14.719900 219.000000 14.798649
14.740400 175.000000 13.228757
14.760800 248.000000 15.748016
14.781200 214.000000 14.628739
14.801700 228.000000 15.099669
14.822100 209.000000 14.456832
14.842500 245.000000 15.652476
14.863000 243.000000 15.588457
14.883400 205.000000 14.317821
14.903800 197.000000 14.035669
14.924300 216.000000 14.696938
14.944700 236.000000 15.362291
14.965100 207.000000 14.387495
14.985600 193.000000 13.892444
15.006000 207.000000 14.387495
15.026400 241.000000 15.524175
15.046900 215.000000 14.662878
15.067300 236.000000 15.362291
15.087700 253.000000 15.905974
15.108200 279.000000 16.703293
15.128600 297.000000 17.233688
15.149000 364.000000 19.078784
15.169500 361.000000 19.000000
15.189900 361.000000 19.000000
15.210300 310.000000 17.606817
15.230700 268.000000 16.370706
15.251200 236.000000 15.362291
15.271600 213.000000 14.594520
15.292000 210.000000 14.491377
15.312500 215.000000 14.662878
15.332900 178.000000 13.341664
15.353300 170.000000 13.038405
15.373800 191.000000 13.820275
15.394200 193.000000 13.892444
15.414600 180.000000 13.416408
15.435100 207.000000 14.387495
15.455500 217.000000 14.730920
15.475900 201.000000 14.177447
15.496400 190.000000 13.784049
15.516800 194.000000 13.928388
15.537200 163.000000 12.767145
15.557700 184.000000 13.564660
15.578100 179.000000 13.379088
15.598500 162.000000 12.727922
15.619000 194.000000 13.928388
15.639400 179.000000 13.379088
15.659800 206.000000 14.352700
15.680300 158.000000 12.569805
15.700700 165.000000 12.845233
15.721100 162.000000 12.727922
15.741600 204.000000 14.282857
15.762000 178.000000 13.341664
15.782400 163.000000 12.767145
15.802900 165.000000 12.845233
15.823300 166.000000 12.884099
15.843700 172.000000 13.114877
15.864100 154.000000 12.409674
15.884600 169.000000 13.000000
15.905000 151.000000 12.288206
15.925400 189.000000 13.747727
15.945900 162.000000 12.727922
15.966300 174.000000 13.190906
15.986700 147.000000 12.124356
16.007200 174.000000 13.190906
16.027600 157.000000 12.529964
16.048000 152.000000 12.328828
16.068500 160.000000 12.649111
16.088900 170.000000 13.038405
16.109300 164.000000 12.806248
16.129800 171.000000 13.076697
16.150200 163.000000 12.767145
16.170600 147.000000 12.124356
16.191100 163.000000 12.767145
16.211500 168.000000 12.961481
16.231900 161.000000 12.688578
16.252400 160.000000 12.649111
16.272800 182.000000 13.490738
16.293200 160.000000 12.649111
16.313700 141.000000 11.874342
16.334100 172.000000 13.114877
16.354500 168.000000 12.961481
16.375000 169.000000 13.000000
16.395400 173.000000 13.152946
16.415800 178.000000 13.341664
16.436300 163.000000 12.767145
16.456700 156.000000 12.489996
16.477100 159.000000 12.609520
16.497500 136.000000 11.661904
16.518000 159.000000 12.609520
16.538400 166.000000 12.884099
16.558800 133.000000 11.532563
16.579300 171.000000 13.076697
16.599700 138.000000 11.747340
16.620100 137.000000 11.704700
16.640600 146.000000 12.083046
16.661000 156.000000 12.489996
16.681400 146.000000 12.083046
16.701900 160.000000 12.649111
16.722300 150.000000 12.247449
16.742700 150.000000 12.247449
16.763200 152.000000 12.328828
16.783600 159.000000 12.609520
16.804000 141.000000 11.874342
16.824500 162.000000 12.727922
16.844900 145.000000 12.041595
16.865300 137.000000 11.704700
16.885800 135.000000 11.618950
16.906200 161.000000 12.688578
16.926600 142.000000 11.916375
16.947100 165.000000 12.845233
16.967500 157.000000 12.529964
16.987900 158.000000 12.569805
17.008400 131.000000 11.445523
17.028800 151.000000 12.288206
17.049200 157.000000 12.529964
17.069600 151.000000 12.288206
17.090100 147.000000 12.124356
17.110500 157.000000 12.529964
17.130900 134.000000 11.575837
17.151400 174.000000 13.190906
17.171800 130.000000 11.401754
17.192200 157.000000 12.529964
17.212700 133.000000 11.532563
17.233100 150.000000 12.247449
17.253500 161.000000 12.688578
17.274000 127.000000 11.269428
17.294400 138.000000 11.747340
17.314800 128.000000 11.313708
17.335300 137.000000 11.704700
17.355700 159.000000 12.609520
17.376100 122.000000 11.045361
17.396600 136.000000 11.661904
17.417000 125.000000 11.180340
17.437400 149.000000 12.206556
17.457900 120.000000 10.954451
17.478300 135.000000 11.618950
17.498700 130.000000 11.401754
17.519200 136.000000 11.661904
17.539600 124.000000 11.135529
17.560000 119.000000 10.908712
17.580500 126.000000 11.224972
17.600900 130.000000 11.401754
17.621300 117.000000 10.816654
17.641800 134.000000 11.575837
17.662200 115.000000 10.723805
17.682600 135.000000 11.618950
17.703000 118.000000 10.862780
17.723500 142.000000 11.916375
17.743900 119.000000 10.908712
17.764300 122.000000 11.045361
17.784800 111.000000 10.535654
17.805200 115.000000 10.723805
17.825600 122.000000 11.045361
17.846100 115.000000 10.723805
17.866500 135.000000 11.618950
17.886900 123.000000 11.090537
17.907400 131.000000 11.445523
17.927800 130.000000 11.401754
17.948200 132.000000 11.489125
17.968700 123.000000 11.090537
17.989100 133.000000 11.532563
18.009500 129.000000 11.357817
18.030000 116.000000 10.770330
18.050400 136.000000 11.661904
18.070800 137.000000 11.704700
18.091300 126.000000 11.224972
18.111700 141.000000 11.874342
18.132100 134.000000 11.575837
18.152600 152.000000 12.328828
18.173000 149.000000 12.206556
18.193400 147.000000 12.124356
18.213900 166.000000 12.884099
18.234300 139.000000 11.789826
18.254700 152.000000 12.328828
18.275200 139.000000 11.789826
18.295600 143.000000 11.958261
18.316000 144.000000 12.000000
18.336400 162.000000 12.727922
18.356900 139.000000 11.789826
18.377300 161.000000 12.688578
18.397700 156.000000 12.489996
18.418200 156.000000 12.489996
18.438600 174.000000 13.190906
18.459000 152.000000 12.328828
18.479500 176.000000 13.266499
18.499900 170.000000 13.038405
18.520300 185.000000 13.601471
18.540800 241.000000 15.524175
18.561200 260.000000 16.124515
18.581600 308.000000 17.549929
18.602100 396.000000 19.899749
18.622500 528.000000 22.978251
18.642900 729.000000 27.000000
18.663400 1017.000000 31.890437
18.683800 1284.000000 35.832946
18.704200 1680.000000 40.987803
18.724700 1901.000000 43.600459
18.745100 1723.000000 41.509035
18.765500 1469.000000 38.327536
18.786000 1263.000000 35.538711
18.806400 965.000000 31.064449
18.826800 748.000000 27.349589
18.847300 672.000000 25.922963
18.867700 635.000000 25.199206
18.888100 630.000000 25.099801
18.908500 745.000000 27.294688
18.929000 841.000000 29.000000
18.949400 1097.000000 33.120990
18.969800 1388.000000 37.255872
18.990300 1868.000000 43.220366
19.010700 2257.000000 47.507894
19.031100 2356.000000 48.538644
19.051600 2205.000000 46.957428
19.072000 1621.000000 40.261644
19.092400 1193.000000 34.539832
19.112900 799.000000 28.266588
19.133300 481.000000 21.931712
19.153700 397.000000 19.924859
19.174200 266.000000 16.309506
19.194600 222.000000 14.899664
19.215000 194.000000 13.928388
19.235500 168.000000 12.961481
19.255900 147.000000 12.124356
19.276300 132.000000 11.489125
19.296800 135.000000 11.618950
19.317200 130.000000 11.401754
19.337600 130.000000 11.401754
19.358100 137.000000 11.704700
19.378500 117.000000 10.816654
19.398900 108.000000 10.392305
19.419400 124.000000 11.135529
19.439800 105.000000 10.246951
19.460200 112.000000 10.583005
19.480700 90.000000 9.486833
19.501100 105.000000 10.246951
19.521500 95.000000 9.746794
19.541900 95.000000 9.746794
19.562400 107.000000 10.344080
19.582800 115.000000 10.723805
19.603200 99.000000 9.949874
19.623700 96.000000 9.797959
19.644100 88.000000 9.380832
19.664500 78.000000 8.831761
19.685000 99.000000 9.949874
19.705400 96.000000 9.797959
19.725800 88.000000 9.380832
19.746300 104.000000 10.198039
19.766700 96.000000 9.797959
19.787100 108.000000 10.392305
19.807600 108.000000 10.392305
19.828000 120.000000 10.954451
19.848400 143.000000 11.958261
19.868900 157.000000 12.529964
19.889300 133.000000 11.532563
19.909700 110.000000 10.488088
19.930200 118.000000 10.862780
19.950600 105.000000 10.246951
19.971000 93.000000 9.643651
19.991500 98.000000 9.899495
20.011900 83.000000 9.110434
20.032300 90.000000 9.486833
20.052800 104.000000 10.198039
20.073200 83.000000 9.110434
20.093600 77.000000 8.774964
20.114100 94.000000 9.695360
20.134500 78.000000 8.831761
20.154900 78.000000 8.831761
20.175300 95.000000 9.746794
20.195800 77.000000 8.774964
20.216200 116.000000 10.770330
20.236600 90.000000 9.486833
20.257100 66.000000 8.124038
20.277500 83.000000 9.110434
20.297900 74.000000 8.602325
20.318400 89.000000 9.433981
20.338800 76.000000 8.717798
20.359200 83.000000 9.110434
20.379700 78.000000 8.831761
20.400100 88.000000 9.380832
20.420500 85.000000 9.219544
20.441000 82.000000 9.055385
20.461400 73.000000 8.544004
20.481800 67.000000 8.185353
20.502300 74.000000 8.602325
20.522700 101.000000 10.049876
20.543100 104.000000 10.198039
20.563600 79.000000 8.888194
20.584000 91.000000 9.539392
20.604400 84.000000 9.165151
20.624900 84.000000 9.165151
20.645300 109.000000 10.440307
20.665700 65.000000 8.062258
20.686200 68.000000 8.246211
20.706600 84.000000 9.165151
20.727000 77.000000 8.774964
20.747400 85.000000 9.219544
20.767900 86.000000 9.273618
20.788300 74.000000 8.602325
20.808700 76.000000 8.717798
20.829200 74.000000 8.602325
20.849600 64.000000 8.000000
20.870000 85.000000 9.219544
20.890500 81.000000 9.000000
20.910900 71.000000 8.426150
20.931300 85.000000 9.219544
20.951800 58.000000 7.615773
20.972200 67.000000 8.185353
20.992600 91.000000 9.539392
21.013100 73.000000 8.544004
21.033500 79.000000 8.888194
21.053900 71.000000 8.426150
21.074400 76.000000 8.717798
21.094800 81.000000 9.000000
21.115200 55.000000 7.416198
21.135700 61.000000 7.810250
21.156100 58.000000 7.615773
21.176500 79.000000 8.888194
21.197000 71.000000 8.426150
21.217400 69.000000 8.306624
21.237800 61.000000 7.810250
21.258300 81.000000 9.000000
21.278700 66.000000 8.124038
21.299100 71.000000 8.426150
21.319600 81.000000 9.000000
21.340000 74.000000 8.602325
21.360400 72.000000 8.485281
21.380800 62.000000 7.874008
21.401300 64.000000 8.000000
21.421700 79.000000 8.888194
21.442100 72.000000 8.485281
21.462600 76.000000 8.717798
21.483000 70.000000 8.366600
21.503400 51.000000 7.141428
21.523900 78.000000 8.831761
21.544300 84.000000 9.165151
21.564700 74.000000 8.602325
21.585200 80.000000 8.944272
21.605600 89.000000 9.433981
21.626000 66.000000 8.124038
21.646500 60.000000 7.745967
21.666900 88.000000 9.380832
21.687300 79.000000 8.888194
21.707800 73.000000 8.544004
21.728200 75.000000 8.660254
21.748600 77.000000 8.774964
21.769100 70.000000 8.366600
21.789500 70.000000 8.366600
21.809900 81.000000 9.000000
21.830400 70.000000 8.366600
21.850800 78.000000 8.831761
21.871200 61.000000 7.810250
21.891700 64.000000 8.000000
21.912100 74.000000 8.602325
21.932500 68.000000 8.246211
21.953000 54.000000 7.348469
21.973400 66.000000 8.124038
21.993800 74.000000 8.602325
22.014200 62.000000 7.874008
22.034700 73.000000 8.544004
22.055100 62.000000 7.874008
22.075500 65.000000 8.062258
22.096000 71.000000 8.426150
22.116400 57.000000 7.549834
22.136800 59.000000 7.681146
22.157300 74.000000 8.602325
22.177700 56.000000 7.483315
22.198100 62.000000 7.874008
22.218600 70.000000 8.366600
22.239000 75.000000 8.660254
22.259400 66.000000 8.124038
22.279900 64.000000 8.000000
22.300300 56.000000 7.483315
22.320700 63.000000 7.937254
22.341200 72.000000 8.485281
22.361600 82.000000 9.055385
22.382000 81.000000 9.000000
22.402500 65.000000 8.062258
22.422900 57.000000 7.549834
22.443300 49.000000 7.000000
22.463800 65.000000 8.062258
22.484200 55.000000 7.416198
22.504600 72.000000 8.485281
22.525100 43.000000 6.557439
22.545500 52.000000 7.211103
22.565900 79.000000 8.888194
22.586300 55.000000 7.416198
22.606800 77.000000 8.774964
22.627200 58.000000 7.615773
22.647600 67.000000 8.185353
22.668100 60.000000 7.745967
22.688500 74.000000 8.602325
22.708900 63.000000 7.937254
22.729400 64.000000 8.000000
22.749800 67.000000 8.185353
22.770200 62.000000 7.874008
22.790700 51.000000 7.141428
22.811100 52.000000 7.211103
22.831500 69.000000 8.306624
22.852000 68.000000 8.246211
22.872400 48.000000 6.928203
22.892800 77.000000 8.774964
22.913300 62.000000 7.874008
22.933700 75.000000 8.660254
22.954100 69.000000 8.306624
22.974600 61.000000 7.810250
22.995000 59.000000 7.681146
23.015400 42.000000 6.480741
23.035900 68.000000 8.246211
23.056300 68.000000 8.246211
23.076700 57.000000 7.549834
23.097200 54.000000 7.348469
23.117600 64.000000 8.000000
23.138000 45.000000 6.708204
23.158500 70.000000 8.366600
23.178900 57.000000 7.549834
23.199300 59.000000 7.681146
23.219700 46.000000 6.782330
23.240200 56.000000 7.483315
23.260600 70.000000 8.366600
23.281000 67.000000 8.185353
23.301500 58.000000 7.615773
23.321900 74.000000 8.602325
23.342300 61.000000 7.810250
