# Two-Theta Intensity Error
2.000100 2186.000000 46.754679
2.010300 2024.000000 44.988888
2.020500 1919.000000 43.806392
2.030700 1913.000000 43.737855
2.040900 1811.000000 42.555846
2.051100 1812.000000 42.567593
2.061400 1912.000000 43.726422
2.071600 1820.000000 42.661458
2.081800 1832.000000 42.801869
2.092000 1758.000000 41.928511
2.102200 1894.000000 43.520110
2.112400 1789.000000 42.296572
2.122700 1847.000000 42.976738
2.132900 1800.000000 42.426407
2.143100 1843.000000 42.930176
2.153300 1837.000000 42.860238
2.163500 1859.000000 43.116122
2.173800 1736.000000 41.665333
2.184000 1828.000000 42.755117
2.194200 1749.000000 41.821047
2.204400 1792.000000 42.332021
2.214600 1722.000000 41.496988
2.224800 1774.000000 42.118879
2.235100 1823.000000 42.696604
2.245300 1792.000000 42.332021
2.255500 1829.000000 42.766810
2.265700 1920.000000 43.817805
2.275900 1911.000000 43.714986
2.286100 1797.000000 42.391037
2.296400 1835.000000 42.836900
2.306600 1791.000000 42.320208
2.316800 1710.000000 41.352146
2.327000 1807.000000 42.508823
2.337200 1765.000000 42.011903
2.347500 1869.000000 43.231933
2.357700 1889.000000 43.462628
2.367900 1816.000000 42.614552
2.378100 1825.000000 42.720019
2.388300 1885.000000 43.416587
2.398500 1844.000000 42.941821
2.408800 1784.000000 42.237424
2.419000 1781.000000 42.201896
2.429200 1850.000000 43.011626
2.439400 1861.000000 43.139309
2.449600 1785.000000 42.249260
2.459800 1843.000000 42.930176
2.470100 1822.000000 42.684892
2.480300 1812.000000 42.567593
2.490500 1859.000000 43.116122
2.500700 1808.000000 42.520583
2.510900 1839.000000 42.883563
2.521200 1866.000000 43.197222
2.531400 1884.000000 43.405069
2.541600 1904.000000 43.634848
2.551800 1834.000000 42.825226
2.562000 1904.000000 43.634848
2.572200 1955.000000 44.215382
2.582500 1884.000000 43.405069
2.592700 1858.000000 43.104524
2.602900 1873.000000 43.278170
2.613100 1916.000000 43.772137
2.623300 1916.000000 43.772137
2.633500 1912.000000 43.726422
2.643800 1944.000000 44.090815
2.654000 1934.000000 43.977267
2.664200 1817.000000 42.626283
2.674400 1863.000000 43.162484
2.684600 1856.000000 43.081318
2.694900 1900.000000 43.588989
2.705100 1884.000000 43.405069
2.715300 1947.000000 44.124823
2.725500 1888.000000 43.451122
2.735700 1948.000000 44.136153
2.745900 1914.000000 43.749286
2.756200 1858.000000 43.104524
2.766400 1921.000000 43.829214
2.776600 2000.000000 44.721360
2.786800 1994.000000 44.654227
2.797000 1953.000000 44.192760
2.807200 2010.000000 44.833024
2.817500 1934.000000 43.977267
2.827700 1901.000000 43.600459
2.837900 1936.000000 44.000000
2.848100 1996.000000 44.676616
2.858300 1928.000000 43.908997
2.868600 1941.000000 44.056782
2.878800 1892.000000 43.497126
2.889000 1896.000000 43.543082
2.899200 2017.000000 44.911023
2.909400 1940.000000 44.045431
2.919600 1968.000000 44.362146
2.929900 2001.000000 44.732538
2.940100 2044.000000 45.210618
2.950300 1946.000000 44.113490
2.960500 2003.000000 44.754888
2.970700 2005.000000 44.777226
2.980900 1956.000000 44.226689
2.991200 1981.000000 44.508426
3.001400 2044.000000 45.210618
3.011600 2024.000000 44.988888
3.021800 2013.000000 44.866469
3.032000 2037.000000 45.133136
3.042300 1914.000000 43.749286
3.052500 2012.000000 44.855323
3.062700 1953.000000 44.192760
3.072900 2055.000000 45.332108
3.083100 1981.000000 44.508426
3.093300 2057.000000 45.354162
3.103600 1997.000000 44.687806
3.113800 2038.000000 45.144213
3.124000 2042.000000 45.188494
3.134200 2054.000000 45.321077
3.144400 2126.000000 46.108568
3.154600 2208.000000 46.989360
3.164900 2165.000000 46.529560
3.175100 2207.000000 46.978719
3.185300 2151.000000 46.378875
3.195500 2203.000000 46.936127
3.205700 2490.000000 49.899900
3.216000 2670.000000 51.672043
3.226200 2627.000000 51.254268
3.236400 2636.000000 51.341991
3.246600 3294.000000 57.393379
3.256800 3472.000000 58.923679
3.267000 2549.000000 50.487622
3.277300 2123.000000 46.076024
3.287500 2063.000000 45.420260
3.297700 2045.000000 45.221676
3.307900 2116.000000 46.000000
3.318100 2088.000000 45.694639
3.328300 1988.000000 44.586994
3.338600 2129.000000 46.141088
3.348800 2016.000000 44.899889
3.359000 2018.000000 44.922155
3.369200 2020.000000 44.944410
3.379400 2031.000000 45.066617
3.389700 2087.000000 45.683695
3.399900 1989.000000 44.598206
3.410100 2010.000000 44.833024
3.420300 1978.000000 44.474712
3.430500 2011.000000 44.844175
3.440700 2031.000000 45.066617
3.451000 2020.000000 44.944410
3.461200 1998.000000 44.698993
3.471400 2027.000000 45.022217
3.481600 2081.000000 45.617979
3.491800 2000.000000 44.721360
3.502000 2102.000000 45.847574
3.512300 1957.000000 44.237993
3.522500 1972.000000 44.407207
3.532700 1952.000000 44.181444
3.542900 1964.000000 44.317040
3.553100 1992.000000 44.631827
3.563400 1963.000000 44.305756
3.573600 1957.000000 44.237993
3.583800 2014.000000 44.877611
3.594000 2000.000000 44.721360
3.604200 2012.000000 44.855323
3.614400 1947.000000 44.124823
3.624700 2001.000000 44.732538
3.634900 1964.000000 44.317040
3.645100 1945.000000 44.102154
3.655300 1966.000000 44.339599
3.665500 2010.000000 44.833024
3.675700 1915.000000 43.760713
3.686000 1972.000000 44.407207
3.696200 1937.000000 44.011362
3.706400 1953.000000 44.192760
3.716600 1958.000000 44.249294
3.726800 1868.000000 43.220366
3.737100 1906.000000 43.657760
3.747300 1943.000000 44.079474
3.757500 1904.000000 43.634848
3.767700 1919.000000 43.806392
3.777900 1954.000000 44.204072
3.788100 1915.000000 43.760713
3.798400 1930.000000 43.931765
3.808600 1893.000000 43.508620
3.818800 1925.000000 43.874822
3.829000 1958.000000 44.249294
3.839200 2000.000000 44.721360
3.849400 1892.000000 43.497126
3.859700 1887.000000 43.439613
3.869900 1926.000000 43.886217
3.880100 1907.000000 43.669211
3.890300 1901.000000 43.600459
3.900500 1832.000000 42.801869
3.910800 1768.000000 42.047592
3.921000 1892.000000 43.497126
3.931200 1872.000000 43.266615
3.941400 1879.000000 43.347434
3.951600 1827.000000 42.743421
3.961800 1931.000000 43.943145
3.972100 1863.000000 43.162484
3.982300 1987.000000 44.575778
3.992500 1925.000000 43.874822
4.002700 1923.000000 43.852024
4.012900 1893.000000 43.508620
4.023100 1815.000000 42.602817
4.033400 1912.000000 43.726422
4.043600 1808.000000 42.520583
4.053800 1930.000000 43.931765
4.064000 1884.000000 43.405069
4.074200 1806.000000 42.497059
4.084500 1822.000000 42.684892
4.094700 1805.000000 42.485292
4.104900 1756.000000 41.904654
4.115100 1827.000000 42.743421
4.125300 1760.000000 41.952354
4.135500 1879.000000 43.347434
4.145800 1864.000000 43.174066
4.156000 1773.000000 42.107007
4.166200 1827.000000 42.743421
4.176400 1769.000000 42.059482
4.186600 1789.000000 42.296572
4.196800 1700.000000 41.231056
4.207100 1785.000000 42.249260
4.217300 1781.000000 42.201896
4.227500 1771.000000 42.083251
4.237700 1764.000000 42.000000
4.247900 1797.000000 42.391037
4.258200 1782.000000 42.213742
4.268400 1703.000000 41.267421
4.278600 1809.000000 42.532341
4.288800 1690.000000 41.109610
4.299000 1710.000000 41.352146
4.309200 1796.000000 42.379240
4.319500 1795.000000 42.367440
4.329700 1768.000000 42.047592
4.339900 1753.000000 41.868843
4.350100 1797.000000 42.391037
4.360300 1807.000000 42.508823
4.370500 1731.000000 41.605288
4.380800 1723.000000 41.509035
4.391000 1685.000000 41.048752
4.401200 1727.000000 41.557190
4.411400 1664.000000 40.792156
4.421600 1711.000000 41.364236
4.431900 1713.000000 41.388404
4.442100 1704.000000 41.279535
4.452300 1704.000000 41.279535
4.462500 1809.000000 42.532341
4.472700 1683.000000 41.024383
4.482900 1747.000000 41.797129
4.493200 1661.000000 40.755368
4.503400 1628.000000 40.348482
4.513600 1687.000000 41.073106
4.523800 1703.000000 41.267421
4.534000 1719.000000 41.460825
4.544200 1680.000000 40.987803
4.554500 1659.000000 40.730824
4.564700 1669.000000 40.853396
4.574900 1677.000000 40.951190
4.585100 1643.000000 40.533936
4.595300 1674.000000 40.914545
4.605600 1666.000000 40.816663
4.615800 1703.000000 41.267421
4.626000 1649.000000 40.607881
4.636200 1612.000000 40.149720
4.646400 1590.000000 39.874804
4.656600 1608.000000 40.099875
4.666900 1586.000000 39.824616
4.677100 1629.000000 40.360872
4.687300 1678.000000 40.963398
4.697500 1664.000000 40.792156
4.707700 1624.000000 40.298883
4.717900 1619.000000 40.236799
4.728200 1653.000000 40.657103
4.738400 1570.000000 39.623226
4.748600 1587.000000 39.837169
4.758800 1623.000000 40.286474
4.769000 1602.000000 40.024992
4.779300 1643.000000 40.533936
4.789500 1572.000000 39.648455
4.799700 1589.000000 39.862263
4.809900 1652.000000 40.644803
4.820100 1576.000000 39.698866
4.830300 1572.000000 39.648455
4.840600 1613.000000 40.162171
4.850800 1584.000000 39.799497
4.861000 1578.000000 39.724048
4.871200 1610.000000 40.124805
4.881400 1638.000000 40.472213
4.891600 1685.000000 41.048752
4.901900 1563.000000 39.534795
4.912100 1583.000000 39.786933
4.922300 1540.000000 39.242834
4.932500 1544.000000 39.293765
4.942700 1607.000000 40.087405
4.953000 1526.000000 39.064050
4.963200 1550.000000 39.370039
4.973400 1587.000000 39.837169
4.983600 1586.000000 39.824616
4.993800 1542.000000 39.268308
5.004000 1584.000000 39.799497
5.014300 1582.000000 39.774364
5.024500 1581.000000 39.761791
5.034700 1596.000000 39.949969
5.044900 1526.000000 39.064050
5.055100 1561.000000 39.509493
5.065300 1571.000000 39.635842
5.075600 1575.000000 39.686270
5.085800 1551.000000 39.382737
5.096000 1587.000000 39.837169
5.106200 1466.000000 38.288379
5.116400 1545.000000 39.306488
5.126700 1555.000000 39.433488
5.136900 1579.000000 39.736633
5.147100 1555.000000 39.433488
5.157300 1521.000000 39.000000
5.167500 1529.000000 39.102430
5.177700 1564.000000 39.547440
5.188000 1576.000000 39.698866
5.198200 1585.000000 39.812058
5.208400 1538.000000 39.217343
5.218600 1572.000000 39.648455
5.228800 1564.000000 39.547440
5.239000 1569.000000 39.610605
5.249300 1570.000000 39.623226
5.259500 1536.000000 39.191836
5.269700 1508.000000 38.832976
5.279900 1553.000000 39.408121
5.290100 1505.000000 38.794329
5.300400 1560.000000 39.496835
5.310600 1489.000000 38.587563
5.320800 1526.000000 39.064050
5.331000 1473.000000 38.379682
5.341200 1484.000000 38.522721
5.351400 1560.000000 39.496835
5.361700 1519.000000 38.974351
5.371900 1562.000000 39.522146
5.382100 1538.000000 39.217343
5.392300 1527.000000 39.076847
5.402500 1504.000000 38.781439
5.412700 1504.000000 38.781439
5.423000 1490.000000 38.600518
5.433200 1621.000000 40.261644
5.443400 1517.000000 38.948684
5.453600 1548.000000 39.344631
5.463800 1544.000000 39.293765
5.474100 1515.000000 38.923001
5.484300 1540.000000 39.242834
5.494500 1528.000000 39.089641
5.504700 1539.000000 39.230090
5.514900 1550.000000 39.370039
5.525100 1539.000000 39.230090
5.535400 1502.000000 38.755645
5.545600 1526.000000 39.064050
5.555800 1547.000000 39.331921
5.566000 1590.000000 39.874804
5.576200 1606.000000 40.074930
5.586400 1519.000000 38.974351
5.596700 1532.000000 39.140772
5.606900 1539.000000 39.230090
5.617100 1535.000000 39.179076
5.627300 1467.000000 38.301436
5.637500 1595.000000 39.937451
5.647800 1569.000000 39.610605
5.658000 1511.000000 38.871583
5.668200 1583.000000 39.786933
5.678400 1486.000000 38.548671
5.688600 1558.000000 39.471509
5.698800 1564.000000 39.547440
5.709100 1561.000000 39.509493
5.719300 1514.000000 38.910153
5.729500 1542.000000 39.268308
5.739700 1562.000000 39.522146
5.749900 1598.000000 39.974992
5.760100 1569.000000 39.610605
5.770400 1535.000000 39.179076
5.780600 1563.000000 39.534795
5.790800 1559.000000 39.484174
5.801000 1576.000000 39.698866
5.811200 1586.000000 39.824616
5.821500 1578.000000 39.724048
5.831700 1562.000000 39.522146
5.841900 1651.000000 40.632499
5.852100 1533.000000 39.153544
5.862300 1595.000000 39.937451
5.872500 1547.000000 39.331921
5.882800 1525.000000 39.051248
5.893000 1578.000000 39.724048
5.903200 1531.000000 39.127995
5.913400 1586.000000 39.824616
5.923600 1496.000000 38.678159
5.933800 1602.000000 40.024992
5.944100 1586.000000 39.824616
5.954300 1637.000000 40.459857
5.964500 1546.000000 39.319207
5.974700 1524.000000 39.038443
5.984900 1611.000000 40.137264
5.995200 1610.000000 40.124805
6.005400 1649.000000 40.607881
6.015600 1597.000000 39.962482
6.025800 1632.000000 40.398020
6.036000 1595.000000 39.937451
6.046200 1651.000000 40.632499
6.056500 1585.000000 39.812058
6.066700 1686.000000 41.060930
6.076900 1620.000000 40.249224
6.087100 1699.000000 41.218928
6.097300 1639.000000 40.484565
6.107500 1656.000000 40.693980
6.117800 1714.000000 41.400483
6.128000 1687.000000 41.073106
6.138200 1685.000000 41.048752
6.148400 1651.000000 40.632499
6.158600 1706.000000 41.303753
6.168900 1723.000000 41.509035
6.179100 1725.000000 41.533119
6.189300 1709.000000 41.340053
6.199500 1736.000000 41.665333
6.209700 1604.000000 40.049969
6.219900 1714.000000 41.400483
6.230200 1719.000000 41.460825
6.240400 1748.000000 41.809090
6.250600 1694.000000 41.158231
6.260800 1730.000000 41.593269
6.271000 1754.000000 41.880783
6.281200 1758.000000 41.928511
6.291500 1749.000000 41.821047
6.301700 1759.000000 41.940434
6.311900 1787.000000 42.272923
6.322100 1814.000000 42.591079
6.332300 1818.000000 42.638011
6.342600 1720.000000 41.472883
6.352800 1829.000000 42.766810
6.363000 1822.000000 42.684892
6.373200 1903.000000 43.623388
6.383400 1773.000000 42.107007
6.393600 1790.000000 42.308392
6.403900 1781.000000 42.201896
6.414100 1907.000000 43.669211
6.424300 1837.000000 42.860238
6.434500 2003.000000 44.754888
6.444700 1925.000000 43.874822
6.454900 1920.000000 43.817805
6.465200 2063.000000 45.420260
6.475400 2077.000000 45.574115
6.485600 1953.000000 44.192760
6.495800 2080.000000 45.607017
6.506000 1957.000000 44.237993
6.516300 1920.000000 43.817805
6.526500 2053.000000 45.310043
6.536700 2052.000000 45.299007
6.546900 2027.000000 45.022217
6.557100 2025.000000 45.000000
6.567300 2080.000000 45.607017
6.577600 2087.000000 45.683695
6.587800 2146.000000 46.324939
6.598000 2096.000000 45.782093
6.608200 2076.000000 45.563143
6.618400 2183.000000 46.722586
6.628600 2199.000000 46.893496
6.638900 2164.000000 46.518813
6.649100 2149.000000 46.357308
6.659300 2198.000000 46.882833
6.669500 2237.000000 47.296934
6.679700 2291.000000 47.864392
6.690000 2281.000000 47.759816
6.700200 2328.000000 48.249352
6.710400 2296.000000 47.916594
6.720600 2365.000000 48.631266
6.730800 2473.000000 49.729267
6.741000 2424.000000 49.234135
6.751300 2453.000000 49.527770
6.761500 2352.000000 48.497423
6.771700 2504.000000 50.039984
6.781900 2588.000000 50.872389
6.792100 2550.000000 50.497525
6.802300 2578.000000 50.774009
6.812600 2607.000000 51.058790
6.822800 2625.000000 51.234754
6.833000 2536.000000 50.358713
6.843200 2687.000000 51.836281
6.853400 2622.000000 51.205468
6.863700 2698.000000 51.942276
6.873900 2782.000000 52.744668
6.884100 2816.000000 53.065997
6.894300 2765.000000 52.583267
6.904500 2814.000000 53.047149
6.914700 2813.000000 53.037722
6.925000 2743.000000 52.373658
6.935200 2935.000000 54.175640
6.945400 2946.000000 54.277067
6.955600 2920.000000 54.037024
6.965800 2991.000000 54.690036
6.976000 2873.000000 53.600373
6.986300 3047.000000 55.199638
6.996500 2986.000000 54.644304
7.006700 3151.000000 56.133769
7.016900 3054.000000 55.263008
7.027100 3085.000000 55.542776
7.037400 2992.000000 54.699177
7.047600 3092.000000 55.605755
7.057800 3121.000000 55.865911
7.068000 3214.000000 56.692151
7.078200 3233.000000 56.859476
7.088400 3127.000000 55.919585
7.098700 3219.000000 56.736232
7.108900 3274.000000 57.218878
7.119100 3318.000000 57.602083
7.129300 3250.000000 57.008771
7.139500 3286.000000 57.323643
7.149700 3274.000000 57.218878
7.160000 3356.000000 57.930993
7.170200 3327.000000 57.680153
7.180400 3222.000000 56.762664
7.190600 3362.000000 57.982756
7.200800 3426.000000 58.532043
7.211100 3399.000000 58.300943
7.221300 3351.000000 57.887823
7.231500 3319.000000 57.610763
7.241700 3492.000000 59.093147
7.251900 3306.000000 57.497826
7.262100 3576.000000 59.799666
7.272400 3386.000000 58.189346
7.282600 3576.000000 59.799666
7.292800 3627.000000 60.224580
7.303000 3564.000000 59.699246
7.313200 3448.000000 58.719673
7.323500 3495.000000 59.118525
7.333700 3462.000000 58.838763
7.343900 3434.000000 58.600341
7.354100 3572.000000 59.766211
7.364300 3559.000000 59.657355
7.374500 3473.000000 58.932164
7.384800 3550.000000 59.581876
7.395000 3546.000000 59.548300
7.405200 3673.000000 60.605280
7.415400 3674.000000 60.613530
7.425600 3717.000000 60.967204
7.435800 3785.000000 61.522354
7.446100 3795.000000 61.603571
7.456300 3749.000000 61.229078
7.466500 3988.000000 63.150614
7.476700 3923.000000 62.633857
7.486900 4104.000000 64.062470
7.497200 4182.000000 64.668385
7.507400 4141.000000 64.350602
7.517600 4209.000000 64.876806
7.527800 4192.000000 64.745656
7.538000 4401.000000 66.340033
7.548200 4320.000000 65.726707
7.558500 4348.000000 65.939366
7.568700 4393.000000 66.279710
7.578900 4257.000000 65.245690
7.589100 4097.000000 64.007812
7.599300 4050.000000 63.639610
7.609500 3868.000000 62.193247
7.619800 3670.000000 60.580525
7.630000 3663.000000 60.522723
7.640200 3536.000000 59.464275
7.650400 3622.000000 60.183054
7.660600 3497.000000 59.135438
7.670900 3576.000000 59.799666
7.681100 3344.000000 57.827329
7.691300 3412.000000 58.412327
7.701500 3331.000000 57.714816
7.711700 3385.000000 58.180753
7.721900 3270.000000 57.183914
7.732200 3282.000000 57.288742
7.742400 3305.000000 57.489129
7.752600 3291.000000 57.367238
7.762800 3190.000000 56.480085
7.773000 3271.000000 57.192657
7.783200 3229.000000 56.824291
7.793500 3209.000000 56.648036
7.803700 3237.000000 56.894639
7.813900 3254.000000 57.043843
7.824100 3239.000000 56.912213
7.834300 3207.000000 56.630381
7.844600 3205.000000 56.612719
7.854800 3186.000000 56.444663
7.865000 3167.000000 56.276105
7.875200 3244.000000 56.956123
7.885400 3190.000000 56.480085
7.895600 3155.000000 56.169387
7.905900 3066.000000 55.371473
7.916100 3161.000000 56.222771
7.926300 3031.000000 55.054518
7.936500 3134.000000 55.982140
7.946700 3167.000000 56.276105
7.956900 3051.000000 55.235858
7.967200 3063.000000 55.344376
7.977400 3025.000000 55.000000
7.987600 2982.000000 54.607692
7.997800 3115.000000 55.812185
8.008000 3010.000000 54.863467
8.018300 2965.000000 54.451814
8.028500 3055.000000 55.272054
8.038700 3043.000000 55.163394
8.048900 3033.000000 55.072679
8.059100 2998.000000 54.753995
8.069300 3023.000000 54.981815
8.079600 3008.000000 54.845237
8.089800 3007.000000 54.836119
8.100000 2963.000000 54.433446
8.110200 2905.000000 53.898052
8.120400 3105.000000 55.722527
8.130600 2989.000000 54.671748
8.140900 3040.000000 55.136195
8.151100 2943.000000 54.249424
8.161300 3003.000000 54.799635
8.171500 3055.000000 55.272054
8.181700 2875.000000 53.619026
8.192000 2925.000000 54.083269
8.202200 2887.000000 53.730811
8.212400 2991.000000 54.690036
8.222600 2948.000000 54.295488
8.232800 2925.000000 54.083269
8.243000 2942.000000 54.240206
8.253300 3000.000000 54.772256
8.263500 2868.000000 53.553711
8.273700 2925.000000 54.083269
8.283900 2908.000000 53.925875
8.294100 2924.000000 54.074023
8.304300 2932.000000 54.147945
8.314600 2906.000000 53.907328
8.324800 2936.000000 54.184869
8.335000 3009.000000 54.854353
8.345200 2905.000000 53.898052
8.355400 2929.000000 54.120237
8.365700 2940.000000 54.221767
8.375900 2851.000000 53.394756
8.386100 2989.000000 54.671748
8.396300 2974.000000 54.534393
8.406500 2918.000000 54.018515
8.416700 2913.000000 53.972215
8.427000 2849.000000 53.376025
8.437200 2997.000000 54.744863
8.447400 2988.000000 54.662601
8.457600 2892.000000 53.777319
8.467800 2946.000000 54.277067
8.478000 2940.000000 54.221767
8.488300 2966.000000 54.460995
8.498500 2969.000000 54.488531
8.508700 2938.000000 54.203321
8.518900 3000.000000 54.772256
8.529100 3019.000000 54.945427
8.539400 2913.000000 53.972215
8.549600 2990.000000 54.680892
8.559800 3078.000000 55.479726
8.570000 3003.000000 54.799635
