# Two-Theta Intensity Error
5.000100 3473.000000 58.932164
5.017900 3493.000000 59.101607
5.035800 3447.000000 58.711157
5.053700 3448.000000 58.719673
5.071600 3476.000000 58.957612
5.089500 3426.000000 58.532043
5.107300 3419.000000 58.472216
5.125200 3554.000000 59.615434
5.143100 3390.000000 58.223707
5.161000 3508.000000 59.228372
5.178900 3441.000000 58.660038
5.196700 3443.000000 58.677082
5.214600 3469.000000 58.898217
5.232500 3389.000000 58.215118
5.250400 3461.000000 58.830264
5.268300 3450.000000 58.736701
5.286100 3403.000000 58.335238
5.304000 3443.000000 58.677082
5.321900 3477.000000 58.966092
5.339800 3516.000000 59.295868
5.357700 3451.000000 58.745213
5.375500 3370.000000 58.051701
5.393400 3443.000000 58.677082
5.411300 3519.000000 59.321160
5.429200 3421.000000 58.489315
5.447100 3487.000000 59.050826
5.465000 3348.000000 57.861905
5.482800 3397.000000 58.283788
5.500700 3457.000000 58.796258
5.518600 3525.000000 59.371710
5.536500 3449.000000 58.728187
5.554400 3491.000000 59.084685
5.572200 3393.000000 58.249464
5.590100 3539.000000 59.489495
5.608000 3494.000000 59.110067
5.625900 3466.000000 58.872744
5.643800 3530.000000 59.413803
5.661600 3469.000000 58.898217
5.679500 3478.000000 58.974571
5.697400 3603.000000 60.024995
5.715300 3514.000000 59.279001
5.733200 3429.000000 58.557664
5.751000 3553.000000 59.607047
5.768900 3535.000000 59.455866
5.786800 3550.000000 59.581876
5.804700 3461.000000 58.830264
5.822600 3517.000000 59.304300
5.840500 3631.000000 60.257780
5.858300 3536.000000 59.464275
5.876200 3554.000000 59.615434
5.894100 3604.000000 60.033324
5.912000 3475.000000 58.949131
5.929900 3613.000000 60.108236
5.947700 3515.000000 59.287435
5.965600 3552.000000 59.598658
5.983500 3615.000000 60.124870
6.001400 3627.000000 60.224580
6.019300 3772.000000 61.416610
6.037100 3611.000000 60.091597
6.055000 3604.000000 60.033324
6.072900 3610.000000 60.083276
6.090800 3750.000000 61.237244
6.108700 3743.000000 61.180062
6.126500 3777.000000 61.457302
6.144400 3799.000000 61.636028
6.162300 3842.000000 61.983869
6.180200 3884.000000 62.321746
6.198100 3744.000000 61.188234
6.216000 3868.000000 62.193247
6.233800 3829.000000 61.878914
6.251700 3865.000000 62.169124
6.269600 3997.000000 63.221832
6.287500 4002.000000 63.261363
6.305400 3931.000000 62.697687
6.323200 4109.000000 64.101482
6.341100 4110.000000 64.109282
6.359000 4184.000000 64.683847
6.376900 4173.000000 64.598762
6.394800 4085.000000 63.914005
6.412600 4245.000000 65.153665
6.430500 4141.000000 64.350602
6.448400 4291.000000 65.505725
6.466300 4312.000000 65.665821
6.484200 4206.000000 64.853681
6.502000 4362.000000 66.045439
6.519900 4476.000000 66.902915
6.537800 4474.000000 66.887966
6.555700 4563.000000 67.549981
6.573600 4481.000000 66.940272
6.591500 4772.000000 69.079664
6.609300 4697.000000 68.534663
6.627200 4573.000000 67.623960
6.645100 4850.000000 69.641941
6.663000 4905.000000 70.035705
6.680900 5055.000000 71.098523
6.698700 5197.000000 72.090221
6.716600 5085.000000 71.309186
6.734500 5132.000000 71.637979
6.752400 5316.000000 72.910905
6.770300 5297.000000 72.780492
6.788100 5423.000000 73.641021
6.806000 5596.000000 74.806417
6.823900 5607.000000 74.879904
6.841800 5670.000000 75.299402
6.859700 5581.000000 74.706091
6.877500 5812.000000 76.236474
6.895400 5993.000000 77.414469
6.913300 5970.000000 77.265775
6.931200 6152.000000 78.434686
6.949100 6267.000000 79.164386
6.966900 6427.000000 80.168572
6.984800 6257.000000 79.101201
7.002700 6350.000000 79.686887
7.020600 6313.000000 79.454389
7.038500 6580.000000 81.117199
7.056400 6602.000000 81.252692
7.074200 6698.000000 81.841310
7.092100 6627.000000 81.406388
7.110000 6910.000000 83.126410
7.127900 6903.000000 83.084295
7.145800 6920.000000 83.186537
7.163600 6892.000000 83.018070
7.181500 6976.000000 83.522452
7.199400 6928.000000 83.234608
7.217300 7001.000000 83.671979
7.235200 6972.000000 83.498503
7.253000 7165.000000 84.646323
7.270900 7044.000000 83.928541
7.288800 7147.000000 84.539931
7.306700 7052.000000 83.976187
7.324600 7047.000000 83.946411
7.342400 7263.000000 85.223236
7.360300 7214.000000 84.935269
7.378200 7252.000000 85.158675
7.396100 7263.000000 85.223236
7.414000 7221.000000 84.976467
7.431900 7128.000000 84.427484
7.449700 7032.000000 83.857021
7.467600 7171.000000 84.681757
7.485500 7079.000000 84.136793
7.503400 7069.000000 84.077345
7.521300 7118.000000 84.368240
7.539100 7279.000000 85.317056
7.557000 7050.000000 83.964278
7.574900 7107.000000 84.303025
7.592800 6950.000000 83.366660
7.610700 7024.000000 83.809307
7.628500 6883.000000 82.963848
7.646400 6936.000000 83.282651
7.664300 6878.000000 82.933708
7.682200 6896.000000 83.042158
7.700100 6787.000000 82.383251
7.717900 6627.000000 81.406388
7.735800 6731.000000 82.042672
7.753700 6769.000000 82.273933
7.771600 6638.000000 81.473922
7.789500 6536.000000 80.845532
7.807400 6502.000000 80.634980
7.825200 6621.000000 81.369527
7.843100 6636.000000 81.461647
7.861000 6628.000000 81.412530
7.878900 6511.000000 80.690768
7.896800 6396.000000 79.974996
7.914600 6395.000000 79.968744
7.932500 6391.000000 79.943730
7.950400 6461.000000 80.380346
7.968300 6324.000000 79.523581
7.986200 6570.000000 81.055537
8.004000 6332.000000 79.573865
8.021900 6272.000000 79.195959
8.039800 6446.000000 80.286985
8.057700 6152.000000 78.434686
8.075600 6403.000000 80.018748
8.093400 6270.000000 79.183332
8.111300 6234.000000 78.955684
8.129200 6274.000000 79.208585
8.147100 6317.000000 79.479557
8.165000 6235.000000 78.962016
8.182900 6302.000000 79.385137
8.200700 6282.000000 79.259069
8.218600 6310.000000 79.435508
8.236500 6239.000000 78.987341
8.254400 6088.000000 78.025637
8.272300 6130.000000 78.294317
8.290100 6179.000000 78.606615
8.308000 6083.000000 77.993589
8.325900 6120.000000 78.230429
8.343800 6230.000000 78.930349
8.361700 6144.000000 78.383672
8.379500 6207.000000 78.784516
8.397400 6182.000000 78.625696
8.415300 6276.000000 79.221209
8.433200 6191.000000 78.682908
8.451100 6187.000000 78.657485
8.468900 6287.000000 79.290605
8.486800 6284.000000 79.271685
8.504700 6271.000000 79.189646
8.522600 6352.000000 79.699435
8.540500 6271.000000 79.189646
8.558300 6073.000000 77.929455
8.576200 6138.000000 78.345389
8.594100 6103.000000 78.121700
8.612000 6325.000000 79.529869
8.629900 6198.000000 78.727378
8.647800 6328.000000 79.548727
8.665600 6264.000000 79.145436
8.683500 6278.000000 79.233831
8.701400 6346.000000 79.661785
8.719300 6127.000000 78.275156
8.737200 6342.000000 79.636675
8.755000 6348.000000 79.674337
8.772900 6331.000000 79.567581
8.790800 6154.000000 78.447435
8.808700 6236.000000 78.968348
8.826600 6327.000000 79.542442
8.844400 6220.000000 78.866977
8.862300 6330.000000 79.561297
8.880200 6330.000000 79.561297
8.898100 6295.000000 79.341036
8.916000 6208.000000 78.790862
8.933800 6284.000000 79.271685
8.951700 6379.000000 79.868642
8.969600 6332.000000 79.573865
8.987500 6348.000000 79.674337
9.005400 6507.000000 80.665978
9.023300 6418.000000 80.112421
9.041100 6361.000000 79.755878
9.059000 6461.000000 80.380346
9.076900 6470.000000 80.436310
9.094800 6337.000000 79.605276
9.112700 6400.000000 80.000000
9.130500 6521.000000 80.752709
9.148400 6660.000000 81.608823
9.166300 6463.000000 80.392786
9.184200 6403.000000 80.018748
9.202100 6408.000000 80.049984
9.219900 6499.000000 80.616376
9.237800 6493.000000 80.579154
9.255700 6390.000000 79.937476
9.273600 6398.000000 79.987499
9.291500 6413.000000 80.081209
9.309300 6632.000000 81.437092
9.327200 6515.000000 80.715550
9.345100 6469.000000 80.430094
9.363000 6475.000000 80.467385
9.380900 6427.000000 80.168572
9.398800 6456.000000 80.349238
9.416600 6381.000000 79.881162
9.434500 6351.000000 79.693162
9.452400 6269.000000 79.177017
9.470300 6559.000000 80.987653
9.488200 6546.000000 80.907354
9.506000 6352.000000 79.699435
9.523900 6478.000000 80.486024
9.541800 6442.000000 80.262071
9.559700 6494.000000 80.585358
9.577600 6444.000000 80.274529
9.595400 6511.000000 80.690768
9.613300 6444.000000 80.274529
9.631200 6286.000000 79.284299
9.649100 6391.000000 79.943730
9.667000 6412.000000 80.074965
9.684800 6445.000000 80.280757
9.702700 6393.000000 79.956238
9.720600 6395.000000 79.968744
9.738500 6304.000000 79.397733
9.756400 6324.000000 79.523581
9.774300 6563.000000 81.012345
9.792100 6415.000000 80.093695
9.810000 6278.000000 79.233831
9.827900 6510.000000 80.684571
9.845800 6392.000000 79.949984
9.863700 6277.000000 79.227520
9.881500 6200.000000 78.740079
9.899400 6332.000000 79.573865
9.917300 6426.000000 80.162335
9.935200 6347.000000 79.668061
9.953100 6271.000000 79.189646
9.970900 6250.000000 79.056942
9.988800 6234.000000 78.955684
10.006700 6269.000000 79.177017
10.024600 6283.000000 79.265377
10.042500 6257.000000 79.101201
10.060300 6246.000000 79.031639
10.078200 6206.000000 78.778170
10.096100 6193.000000 78.695616
10.114000 6148.000000 78.409183
10.131900 6227.000000 78.911343
10.149700 6137.000000 78.339007
10.167600 6095.000000 78.070481
10.185500 6122.000000 78.243211
10.203400 6194.000000 78.701969
10.221300 6087.000000 78.019228
10.239200 6135.000000 78.326241
10.257000 5980.000000 77.330460
10.274900 6087.000000 78.019228
10.292800 6142.000000 78.370913
10.310700 6096.000000 78.076885
10.328600 6067.000000 77.890949
10.346400 6089.000000 78.032045
10.364300 6047.000000 77.762459
10.382200 6089.000000 78.032045
10.400100 6073.000000 77.929455
10.418000 5970.000000 77.265775
10.435800 5886.000000 76.720271
10.453700 5930.000000 77.006493
10.471600 6101.000000 78.108898
10.489500 6102.000000 78.115299
10.507400 6003.000000 77.479029
10.525200 6038.000000 77.704569
10.543100 5902.000000 76.824475
10.561000 6078.000000 77.961529
10.578900 5986.000000 77.369245
10.596800 6083.000000 77.993589
10.614700 6068.000000 77.897368
10.632500 6154.000000 78.447435
10.650400 6073.000000 77.929455
10.668300 6010.000000 77.524190
10.686200 6118.000000 78.217645
10.704100 6050.000000 77.781746
10.721900 6192.000000 78.689262
10.739800 6290.000000 79.309520
10.757700 6137.000000 78.339007
10.775600 6063.000000 77.865268
10.793500 6095.000000 78.070481
10.811300 6112.000000 78.179281
10.829200 6122.000000 78.243211
10.847100 6094.000000 78.064076
10.865000 6146.000000 78.396428
10.882900 6015.000000 77.556431
10.900700 5915.000000 76.909037
10.918600 5961.000000 77.207513
10.936500 5973.000000 77.285186
10.954400 5951.000000 77.142725
10.972300 5943.000000 77.090855
10.990200 5863.000000 76.570229
11.008000 6009.000000 77.517740
11.025900 5842.000000 76.432977
11.043800 5908.000000 76.863515
11.061700 5893.000000 76.765878
11.079600 5782.000000 76.039463
11.097400 5812.000000 76.236474
11.115300 5788.000000 76.078906
11.133200 5753.000000 75.848533
11.151100 5588.000000 74.752926
11.169000 5573.000000 74.652528
11.186800 5749.000000 75.822160
11.204700 5546.000000 74.471471
11.222600 5415.000000 73.586684
11.240500 5487.000000 74.074287
11.258400 5283.000000 72.684249
11.276200 5282.000000 72.677369
11.294100 5345.000000 73.109507
11.312000 5333.000000 73.027392
11.329900 5173.000000 71.923571
11.347800 5086.000000 71.316197
11.365700 5157.000000 71.812255
11.383500 4972.000000 70.512410
11.401400 4981.000000 70.576200
11.419300 4883.000000 69.878466
11.437200 4742.000000 68.862181
11.455100 4830.000000 69.498201
11.472900 4773.000000 69.086902
11.490800 4801.000000 69.289249
11.508700 4758.000000 68.978257
11.526600 4584.000000 67.705244
11.544500 4584.000000 67.705244
11.562300 4636.000000 68.088178
11.580200 4429.000000 66.550733
11.598100 4297.000000 65.551506
11.616000 4336.000000 65.848311
11.633900 4167.000000 64.552304
11.651700 4320.000000 65.726707
11.669600 4302.000000 65.589633
11.687500 4196.000000 64.776539
11.705400 4146.000000 64.389440
11.723300 4153.000000 64.443774
11.741200 3970.000000 63.007936
11.759000 3914.000000 62.561969
11.776900 4121.000000 64.195015
11.794800 3956.000000 62.896741
11.812700 3985.000000 63.126856
11.830600 3763.000000 61.343296
11.848400 3850.000000 62.048368
11.866300 3779.000000 61.473572
11.884200 3689.000000 60.737139
11.902100 3619.000000 60.158125
11.920000 3700.000000 60.827625
11.937800 3675.000000 60.621778
11.955700 3638.000000 60.315835
11.973600 3557.000000 59.640590
11.991500 3513.000000 59.270566
12.009400 3493.000000 59.101607
12.027200 3583.000000 59.858166
12.045100 3374.000000 58.086143
12.063000 3484.000000 59.025418
12.080900 3493.000000 59.101607
12.098800 3326.000000 57.671483
12.116600 3407.000000 58.369513
12.134500 3332.000000 57.723479
12.152400 3332.000000 57.723479
12.170300 3301.000000 57.454330
12.188200 3292.000000 57.375953
12.206100 3248.000000 56.991227
12.223900 3404.000000 58.343809
12.241800 3264.000000 57.131427
12.259700 3311.000000 57.541290
12.277600 3306.000000 57.497826
12.295500 3194.000000 56.515485
12.313300 3314.000000 57.567352
12.331200 3160.000000 56.213877
12.349100 3183.000000 56.418082
12.367000 3206.000000 56.621551
12.384900 3185.000000 56.435804
12.402700 3229.000000 56.824291
12.420600 3184.000000 56.426944
12.438500 3145.000000 56.080300
12.456400 3158.000000 56.196085
12.474300 3296.000000 57.410800
12.492100 3096.000000 55.641711
12.510000 3218.000000 56.727418
12.527900 3150.000000 56.124861
12.545800 3207.000000 56.630381
12.563700 3220.000000 56.745044
12.581600 3239.000000 56.912213
12.599400 3171.000000 56.311633
12.617300 3209.000000 56.648036
12.635200 3289.000000 57.349804
12.653100 3167.000000 56.276105
12.671000 3228.000000 56.815491
12.688800 3147.000000 56.098128
12.706700 3290.000000 57.358522
12.724600 3226.000000 56.797887
12.742500 3325.000000 57.662813
12.760400 3255.000000 57.052607
12.778200 3334.000000 57.740800
12.796100 3241.000000 56.929781
12.814000 3212.000000 56.674509
12.831900 3081.000000 55.506756
12.849800 3280.000000 57.271284
12.867600 3307.000000 57.506521
12.885500 3291.000000 57.367238
12.903400 3332.000000 57.723479
12.921300 3400.000000 58.309519
12.939200 3325.000000 57.662813
12.957100 3344.000000 57.827329
12.974900 3229.000000 56.824291
12.992800 3274.000000 57.218878
13.010700 3245.000000 56.964901
13.028600 3325.000000 57.662813
13.046500 3194.000000 56.515485
13.064300 3265.000000 57.140179
13.082200 3287.000000 57.332364
13.100100 3208.000000 56.639209
13.118000 3166.000000 56.267220
13.135900 3209.000000 56.648036
13.153700 3217.000000 56.718604
13.171600 3073.000000 55.434646
13.189500 3284.000000 57.306195
13.207400 3201.000000 56.577381
13.225300 3166.000000 56.267220
13.243100 3219.000000 56.736232
13.261000 3062.000000 55.335341
13.278900 3126.000000 55.910643
13.296800 3059.000000 55.308227
13.314700 3109.000000 55.758407
13.332600 3111.000000 55.776339
13.350400 2990.000000 54.680892
13.368300 3038.000000 55.118055
13.386200 2980.000000 54.589376
13.404100 2982.000000 54.607692
13.422000 2916.000000 54.000000
13.439800 2725.000000 52.201533
13.457700 2838.000000 53.272882
13.475600 2767.000000 52.602281
13.493500 2849.000000 53.376025
13.511400 2754.000000 52.478567
13.529200 2733.000000 52.278102
13.547100 2756.000000 52.497619
13.565000 2649.000000 51.468437
13.582900 2667.000000 51.643005
13.600800 2702.000000 51.980766
13.618600 2689.000000 51.855569
13.636500 2557.000000 50.566788
13.654400 2558.000000 50.576674
13.672300 2485.000000 49.849774
13.690200 2628.000000 51.264022
13.708000 2434.000000 49.335586
13.725900 2449.000000 49.487372
13.743800 2359.000000 48.569538
13.761700 2335.000000 48.321838
13.779600 2364.000000 48.620983
13.797500 2281.000000 47.759816
13.815300 2335.000000 48.321838
13.833200 2233.000000 47.254629
13.851100 2299.000000 47.947888
13.869000 2245.000000 47.381431
13.886900 2163.000000 46.508064
13.904700 2242.000000 47.349762
13.922600 2125.000000 46.097722
13.940500 2160.000000 46.475800
13.958400 2155.000000 46.421978
13.976300 2061.000000 45.398238
13.994100 2086.000000 45.672749
14.012000 2075.000000 45.552168
14.029900 1996.000000 44.676616
14.047800 2040.000000 45.166359
14.065700 1929.000000 43.920383
14.083500 1977.000000 44.463468
14.101400 2050.000000 45.276926
14.119300 2003.000000 44.754888
14.137200 1918.000000 43.794977
14.155100 1886.000000 43.428102
14.173000 2003.000000 44.754888
14.190800 1939.000000 44.034078
14.208700 1866.000000 43.197222
14.226600 1968.000000 44.362146
14.244500 1909.000000 43.692105
14.262400 1996.000000 44.676616
14.280200 1975.000000 44.440972
14.298100 1931.000000 43.943145
14.316000 1827.000000 42.743421
14.333900 1872.000000 43.266615
14.351800 1755.000000 41.892720
14.369600 1806.000000 42.497059
14.387500 1832.000000 42.801869
14.405400 1784.000000 42.237424
14.423300 1756.000000 41.904654
14.441200 1734.000000 41.641326
14.459000 1699.000000 41.218928
14.476900 1688.000000 41.085277
14.494800 1692.000000 41.133928
14.512700 1640.000000 40.496913
14.530600 1691.000000 41.121770
14.548500 1677.000000 40.951190
14.566300 1676.000000 40.938979
14.584200 1649.000000 40.607881
14.602100 1618.000000 40.224371
14.620000 1611.000000 40.137264
14.637900 1579.000000 39.736633
14.655700 1684.000000 41.036569
14.673600 1553.000000 39.408121
14.691500 1604.000000 40.049969
14.709400 1476.000000 38.418745
14.727300 1610.000000 40.124805
14.745100 1480.000000 38.470768
14.763000 1504.000000 38.781439
14.780900 1634.000000 40.422766
14.798800 1552.000000 39.395431
14.816700 1465.000000 38.275318
14.834500 1492.000000 38.626416
14.852400 1562.000000 39.522146
14.870300 1450.000000 38.078866
14.888200 1490.000000 38.600518
14.906100 1459.000000 38.196859
14.924000 1404.000000 37.469988
14.941800 1433.000000 37.854986
14.959700 1427.000000 37.775654
14.977600 1430.000000 37.815341
14.995500 1447.000000 38.039453
15.013400 1492.000000 38.626416
15.031200 1530.000000 39.115214
15.049100 1555.000000 39.433488
15.067000 1485.000000 38.535698
15.084900 1487.000000 38.561639
15.102800 1462.000000 38.236109
15.120600 1429.000000 37.802116
15.138500 1438.000000 37.920970
15.156400 1421.000000 37.696154
15.174300 1459.000000 38.196859
15.192200 1353.000000 36.783148
15.210000 1378.000000 37.121422
15.227900 1396.000000 37.363083
15.245800 1374.000000 37.067506
15.263700 1267.000000 35.594943
15.281600 1312.000000 36.221541
15.299400 1263.000000 35.538711
15.317300 1285.000000 35.846897
15.335200 1329.000000 36.455452
15.353100 1352.000000 36.769553
15.371000 1341.000000 36.619667
15.388900 1348.000000 36.715120
15.406700 1278.000000 35.749126
15.424600 1285.000000 35.846897
15.442500 1297.000000 36.013886
15.460400 1215.000000 34.856850
15.478300 1226.000000 35.014283
15.496100 1222.000000 34.957117
15.514000 1251.000000 35.369478
15.531900 1208.000000 34.756294
15.549800 1231.000000 35.085610
15.567700 1242.000000 35.242020
15.585500 1264.000000 35.552778
15.603400 1235.000000 35.142567
15.621300 1189.000000 34.481879
15.639200 1147.000000 33.867388
15.657100 1184.000000 34.409301
15.674900 1183.000000 34.394767
15.692800 1143.000000 33.808283
15.710700 1140.000000 33.763886
15.728600 1215.000000 34.856850
15.746500 1202.000000 34.669872
15.764400 1134.000000 33.674916
15.782200 1187.000000 34.452866
15.800100 1186.000000 34.438351
15.818000 1128.000000 33.585711
15.835900 1115.000000 33.391616
15.853800 1092.000000 33.045423
15.871600 1121.000000 33.481338
15.889500 1131.000000 33.630343
15.907400 1066.000000 32.649655
15.925300 1147.000000 33.867388
15.943200 1046.000000 32.341923
15.961000 1022.000000 31.968735
15.978900 1085.000000 32.939338
15.996800 1116.000000 33.406586
16.014700 1115.000000 33.391616
16.032600 1036.000000 32.186954
16.050400 1095.000000 33.090784
16.068300 1087.000000 32.969683
16.086200 1070.000000 32.710854
16.104100 1032.000000 32.124757
16.122000 1078.000000 32.832910
16.139900 1057.000000 32.511536
16.157700 1040.000000 32.249031
16.175600 1041.000000 32.264532
16.193500 1060.000000 32.557641
16.211400 1093.000000 33.060551
16.229300 1090.000000 33.015148
16.247100 1094.000000 33.075671
16.265000 1050.000000 32.403703
16.282900 1030.000000 32.093613
