# Two-Theta Intensity Error
10.000000 651.000000 25.514702
10.028606 706.000000 26.570661
10.057213 695.000000 26.362853
10.085819 734.000000 27.092434
10.114426 782.000000 27.964263
10.143032 804.000000 28.354894
10.171639 947.000000 30.773365
10.200245 1030.000000 32.093613
10.228852 1142.000000 33.793490
10.257458 1125.000000 33.541020
10.286065 919.000000 30.315013
10.314671 777.000000 27.874720
10.343277 697.000000 26.400758
10.371884 660.000000 25.690465
10.400490 681.000000 26.095977
10.429097 595.000000 24.392622
10.457703 649.000000 25.475478
10.486310 587.000000 24.228083
10.514916 616.000000 24.819347
10.543523 635.000000 25.199206
10.572129 590.000000 24.289916
10.600736 559.000000 23.643181
10.629342 596.000000 24.413111
10.657949 580.000000 24.083189
10.686555 558.000000 23.622024
10.715161 583.000000 24.145393
10.743768 588.000000 24.248711
10.772374 564.000000 23.748684
10.800981 552.000000 23.494680
10.829587 557.000000 23.600847
10.858194 574.000000 23.958297
10.886800 564.000000 23.748684
10.915407 575.000000 23.979158
10.944013 613.000000 24.758837
10.972620 576.000000 24.000000
11.001226 540.000000 23.237900
11.029832 552.000000 23.494680
11.058439 565.000000 23.769729
11.087045 567.000000 23.811762
11.115652 588.000000 24.248711
11.144258 538.000000 23.194827
11.172865 568.000000 23.832751
11.201471 551.000000 23.473389
11.230078 547.000000 23.388031
11.258684 501.000000 22.383029
11.287291 538.000000 23.194827
11.315897 528.000000 22.978251
11.344503 535.000000 23.130067
11.373110 552.000000 23.494680
11.401716 566.000000 23.790755
11.430323 531.000000 23.043437
11.458929 546.000000 23.366643
11.487536 515.000000 22.693611
11.516142 495.000000 22.248595
11.544749 542.000000 23.280893
11.573355 553.000000 23.515952
11.601962 570.000000 23.874673
11.630568 527.000000 22.956481
11.659174 509.000000 22.561028
11.687781 485.000000 22.022716
11.716387 517.000000 22.737634
11.744994 528.000000 22.978251
11.773600 544.000000 23.323808
11.802207 489.000000 22.113344
11.830813 498.000000 22.315914
11.859420 459.000000 21.424285
11.888026 516.000000 22.715633
11.916633 466.000000 21.587033
11.945239 501.000000 22.383029
11.973846 471.000000 21.702534
12.002452 465.000000 21.563859
12.031058 543.000000 23.302360
12.059665 463.000000 21.517435
12.088271 492.000000 22.181073
12.116878 507.000000 22.516660
12.145484 487.000000 22.068076
12.174091 512.000000 22.627417
12.202697 465.000000 21.563859
12.231304 498.000000 22.315914
12.259910 472.000000 21.725561
12.288517 486.000000 22.045408
12.317123 477.000000 21.840330
12.345729 448.000000 21.166010
12.374336 456.000000 21.354157
12.402942 523.000000 22.869193
12.431549 447.000000 21.142375
12.460155 435.000000 20.856654
12.488762 458.000000 21.400935
12.517368 463.000000 21.517435
12.545975 470.000000 21.679483
12.574581 479.000000 21.886069
12.603188 455.000000 21.330729
12.631794 439.000000 20.952327
12.660400 459.000000 21.424285
12.689007 449.000000 21.189620
12.717613 450.000000 21.213203
12.746220 417.000000 20.420578
12.774826 430.000000 20.736441
12.803433 414.000000 20.346990
12.832039 438.000000 20.928450
12.860646 482.000000 21.954498
12.889252 430.000000 20.736441
12.917859 409.000000 20.223748
12.946465 439.000000 20.952327
12.975072 431.000000 20.760539
13.003678 406.000000 20.149442
13.032284 411.000000 20.273135
13.060891 420.000000 20.493902
13.089497 385.000000 19.621417
13.118104 406.000000 20.149442
13.146710 423.000000 20.566964
13.175317 407.000000 20.174241
13.203923 411.000000 20.273135
13.232530 396.000000 19.899749
13.261136 417.000000 20.420578
13.289743 407.000000 20.174241
13.318349 400.000000 20.000000
13.346955 396.000000 19.899749
13.375562 359.000000 18.947295
13.404168 408.000000 20.199010
13.432775 365.000000 19.104973
13.461381 346.000000 18.601075
13.489988 364.000000 19.078784
13.518594 376.000000 19.390719
13.547201 326.000000 18.055470
13.575807 401.000000 20.024984
13.604414 372.000000 19.287302
13.633020 363.000000 19.052559
13.661626 326.000000 18.055470
13.690233 358.000000 18.920888
13.718839 355.000000 18.841444
13.747446 350.000000 18.708287
13.776052 367.000000 19.157244
13.804659 339.000000 18.411953
13.833265 355.000000 18.841444
13.861872 339.000000 18.411953
13.890478 369.000000 19.209373
13.919085 349.000000 18.681542
13.947691 328.000000 18.110770
13.976298 308.000000 17.549929
14.004904 311.000000 17.635192
14.033510 324.000000 18.000000
14.062117 306.000000 17.492856
14.090723 337.000000 18.357560
14.119330 332.000000 18.220867
14.147936 301.000000 17.349352
14.176543 284.000000 16.852300
14.205149 339.000000 18.411953
14.233756 311.000000 17.635192
14.262362 322.000000 17.944358
14.290969 304.000000 17.435596
14.319575 273.000000 16.522712
14.348181 313.000000 17.691806
14.376788 312.000000 17.663522
14.405394 317.000000 17.804494
14.434001 315.000000 17.748239
14.462607 321.000000 17.916473
14.491214 284.000000 16.852300
14.519820 310.000000 17.606817
14.548427 277.000000 16.643317
14.577033 263.000000 16.217275
14.605640 299.000000 17.291616
14.634246 275.000000 16.583124
14.662852 293.000000 17.117243
14.691459 291.000000 17.058722
14.720065 317.000000 17.804494
14.748672 270.000000 16.431677
14.777278 267.000000 16.340135
14.805885 276.000000 16.613248
14.834491 286.000000 16.911535
14.863098 276.000000 16.613248
14.891704 278.000000 16.673332
14.920311 279.000000 16.703293
14.948917 269.000000 16.401219
14.977523 266.000000 16.309506
15.006130 262.000000 16.186414
15.034736 269.000000 16.401219
15.063343 269.000000 16.401219
15.091949 300.000000 17.320508
15.120556 293.000000 17.117243
15.149162 262.000000 16.186414
15.177769 249.000000 15.779734
15.206375 274.000000 16.552945
15.234982 243.000000 15.588457
15.263588 260.000000 16.124515
15.292195 274.000000 16.552945
15.320801 262.000000 16.186414
15.349407 269.000000 16.401219
15.378014 264.000000 16.248077
15.406620 260.000000 16.124515
15.435227 245.000000 15.652476
15.463833 246.000000 15.684387
15.492440 266.000000 16.309506
15.521046 240.000000 15.491933
15.549653 223.000000 14.933185
15.578259 254.000000 15.937377
15.606866 256.000000 16.000000
15.635472 238.000000 15.427249
15.664078 241.000000 15.524175
15.692685 248.000000 15.748016
15.721291 213.000000 14.594520
15.749898 208.000000 14.422205
15.778504 244.000000 15.620499
15.807111 251.000000 15.842980
15.835717 211.000000 14.525839
15.864324 220.000000 14.832397
15.892930 242.000000 15.556349
15.921537 233.000000 15.264338
15.950143 217.000000 14.730920
15.978749 215.000000 14.662878
16.007356 229.000000 15.132746
16.035962 214.000000 14.628739
16.064569 247.000000 15.716234
16.093175 218.000000 14.764823
16.121782 217.000000 14.730920
16.150388 227.000000 15.066519
16.178995 223.000000 14.933185
16.207601 222.000000 14.899664
16.236208 185.000000 13.601471
16.264814 234.000000 15.297059
16.293421 200.000000 14.142136
16.322027 231.000000 15.198684
16.350633 208.000000 14.422205
16.379240 198.000000 14.071247
16.407846 210.000000 14.491377
16.436453 235.000000 15.329710
16.465059 211.000000 14.525839
16.493666 227.000000 15.066519
16.522272 197.000000 14.035669
16.550879 204.000000 14.282857
16.579485 185.000000 13.601471
16.608092 252.000000 15.874508
16.636698 186.000000 13.638182
16.665304 204.000000 14.282857
16.693911 196.000000 14.000000
16.722517 208.000000 14.422205
16.751124 190.000000 13.784049
16.779730 201.000000 14.177447
16.808337 215.000000 14.662878
16.836943 219.000000 14.798649
16.865550 217.000000 14.730920
16.894156 174.000000 13.190906
16.922763 208.000000 14.422205
16.951369 208.000000 14.422205
16.979975 205.000000 14.317821
17.008582 204.000000 14.282857
17.037188 203.000000 14.247807
17.065795 175.000000 13.228757
17.094401 186.000000 13.638182
17.123008 209.000000 14.456832
17.151614 183.000000 13.527749
17.180221 202.000000 14.212670
17.208827 165.000000 12.845233
17.237434 173.000000 13.152946
17.266040 195.000000 13.964240
17.294647 175.000000 13.228757
17.323253 191.000000 13.820275
17.351859 179.000000 13.379088
17.380466 188.000000 13.711309
17.409072 220.000000 14.832397
17.437679 190.000000 13.784049
17.466285 171.000000 13.076697
17.494892 177.000000 13.304135
17.523498 180.000000 13.416408
17.552105 164.000000 12.806248
17.580711 184.000000 13.564660
17.609318 196.000000 14.000000
17.637924 174.000000 13.190906
17.666530 186.000000 13.638182
17.695137 160.000000 12.649111
17.723743 192.000000 13.856406
17.752350 159.000000 12.609520
17.780956 183.000000 13.527749
17.809563 189.000000 13.747727
17.838169 156.000000 12.489996
17.866776 154.000000 12.409674
17.895382 181.000000 13.453624
17.923989 143.000000 11.958261
17.952595 155.000000 12.449900
17.981201 182.000000 13.490738
18.009808 177.000000 13.304135
18.038414 157.000000 12.529964
18.067021 157.000000 12.529964
18.095627 186.000000 13.638182
18.124234 150.000000 12.247449
18.152840 152.000000 12.328828
18.181447 160.000000 12.649111
18.210053 178.000000 13.341664
18.238660 168.000000 12.961481
18.267266 164.000000 12.806248
18.295872 170.000000 13.038405
18.324479 157.000000 12.529964
18.353085 149.000000 12.206556
18.381692 156.000000 12.489996
18.410298 169.000000 13.000000
18.438905 168.000000 12.961481
18.467511 147.000000 12.124356
18.496118 132.000000 11.489125
18.524724 159.000000 12.609520
18.553331 173.000000 13.152946
18.581937 154.000000 12.409674
18.610544 152.000000 12.328828
18.639150 146.000000 12.083046
18.667756 153.000000 12.369317
18.696363 150.000000 12.247449
18.724969 144.000000 12.000000
18.753576 159.000000 12.609520
18.782182 159.000000 12.609520
18.810789 152.000000 12.328828
18.839395 148.000000 12.165525
18.868002 157.000000 12.529964
18.896608 137.000000 11.704700
18.925215 149.000000 12.206556
18.953821 152.000000 12.328828
18.982427 166.000000 12.884099
19.011034 134.000000 11.575837
19.039640 144.000000 12.000000
19.068247 164.000000 12.806248
19.096853 160.000000 12.649111
19.125460 156.000000 12.489996
19.154066 133.000000 11.532563
19.182673 150.000000 12.247449
19.211279 137.000000 11.704700
19.239886 149.000000 12.206556
19.268492 160.000000 12.649111
19.297098 163.000000 12.767145
19.325705 144.000000 12.000000
19.354311 121.000000 11.000000
19.382918 147.000000 12.124356
19.411524 161.000000 12.688578
19.440131 151.000000 12.288206
19.468737 156.000000 12.489996
19.497344 132.000000 11.489125
19.525950 132.000000 11.489125
19.554557 122.000000 11.045361
19.583163 141.000000 11.874342
19.611770 139.000000 11.789826
19.640376 140.000000 11.832160
19.668982 133.000000 11.532563
19.697589 130.000000 11.401754
19.726195 147.000000 12.124356
19.754802 141.000000 11.874342
19.783408 134.000000 11.575837
19.812015 147.000000 12.124356
19.840621 123.000000 11.090537
19.869228 136.000000 11.661904
19.897834 146.000000 12.083046
19.926441 133.000000 11.532563
19.955047 131.000000 11.445523
19.983653 132.000000 11.489125
20.012260 135.000000 11.618950
20.040866 134.000000 11.575837
20.069473 133.000000 11.532563
20.098079 111.000000 10.535654
20.126686 144.000000 12.000000
20.155292 141.000000 11.874342
20.183899 126.000000 11.224972
20.212505 130.000000 11.401754
20.241112 124.000000 11.135529
20.269718 143.000000 11.958261
20.298324 126.000000 11.224972
20.326931 133.000000 11.532563
20.355537 141.000000 11.874342
20.384144 122.000000 11.045361
20.412750 132.000000 11.489125
20.441357 121.000000 11.000000
20.469963 133.000000 11.532563
20.498570 137.000000 11.704700
20.527176 125.000000 11.180340
20.555783 115.000000 10.723805
20.584389 95.000000 9.746794
20.612996 138.000000 11.747340
20.641602 114.000000 10.677078
20.670208 150.000000 12.247449
20.698815 118.000000 10.862780
20.727421 139.000000 11.789826
20.756028 123.000000 11.090537
20.784634 118.000000 10.862780
20.813241 108.000000 10.392305
20.841847 114.000000 10.677078
20.870454 135.000000 11.618950
20.899060 112.000000 10.583005
20.927667 129.000000 11.357817
20.956273 114.000000 10.677078
20.984879 128.000000 11.313708
21.013486 114.000000 10.677078
21.042092 103.000000 10.148892
21.070699 122.000000 11.045361
21.099305 112.000000 10.583005
21.127912 123.000000 11.090537
21.156518 105.000000 10.246951
21.185125 111.000000 10.535654
21.213731 120.000000 10.954451
21.242338 118.000000 10.862780
21.270944 98.000000 9.899495
21.299550 113.000000 10.630146
21.328157 121.000000 11.000000
21.356763 108.000000 10.392305
21.385370 114.000000 10.677078
21.413976 105.000000 10.246951
21.442583 111.000000 10.535654
21.471189 119.000000 10.908712
21.499796 110.000000 10.488088
21.528402 93.000000 9.643651
21.557009 115.000000 10.723805
21.585615 98.000000 9.899495
21.614221 105.000000 10.246951
21.642828 114.000000 10.677078
21.671434 106.000000 10.295630
21.700041 111.000000 10.535654
21.728647 108.000000 10.392305
21.757254 102.000000 10.099505
21.785860 119.000000 10.908712
21.814467 105.000000 10.246951
21.843073 95.000000 9.746794
21.871680 94.000000 9.695360
21.900286 123.000000 11.090537
21.928893 105.000000 10.246951
21.957499 111.000000 10.535654
21.986105 104.000000 10.198039
22.014712 100.000000 10.000000
22.043318 102.000000 10.099505
22.071925 91.000000 9.539392
22.100531 106.000000 10.295630
22.129138 135.000000 11.618950
22.157744 106.000000 10.295630
22.186351 101.000000 10.049876
22.214957 97.000000 9.848858
22.243564 70.000000 8.366600
22.272170 90.000000 9.486833
22.300776 127.000000 11.269428
22.329383 88.000000 9.380832
22.357989 115.000000 10.723805
22.386596 110.000000 10.488088
22.415202 89.000000 9.433981
22.443809 80.000000 8.944272
22.472415 93.000000 9.643651
22.501022 95.000000 9.746794
22.529628 88.000000 9.380832
22.558235 91.000000 9.539392
22.586841 93.000000 9.643651
22.615447 89.000000 9.433981
22.644054 103.000000 10.148892
22.672660 88.000000 9.380832
22.701267 107.000000 10.344080
22.729873 97.000000 9.848858
22.758480 88.000000 9.380832
22.787086 81.000000 9.000000
22.815693 103.000000 10.148892
22.844299 81.000000 9.000000
22.872906 82.000000 9.055385
22.901512 91.000000 9.539392
22.930119 107.000000 10.344080
22.958725 87.000000 9.327379
22.987331 101.000000 10.049876
23.015938 105.000000 10.246951
23.044544 85.000000 9.219544
23.073151 77.000000 8.774964
23.101757 81.000000 9.000000
23.130364 80.000000 8.944272
23.158970 89.000000 9.433981
23.187577 92.000000 9.591663
23.216183 87.000000 9.327379
23.244790 83.000000 9.110434
23.273396 82.000000 9.055385
23.302002 89.000000 9.433981
23.330609 98.000000 9.899495
23.359215 97.000000 9.848858
23.387822 74.000000 8.602325
23.416428 88.000000 9.380832
23.445035 113.000000 10.630146
23.473641 82.000000 9.055385
23.502248 95.000000 9.746794
23.530854 97.000000 9.848858
23.559461 96.000000 9.797959
23.588067 88.000000 9.380832
23.616673 102.000000 10.099505
23.645280 87.000000 9.327379
23.673886 90.000000 9.486833
23.702493 88.000000 9.380832
23.731099 87.000000 9.327379
23.759706 97.000000 9.848858
23.788312 82.000000 9.055385
23.816919 93.000000 9.643651
23.845525 87.000000 9.327379
23.874132 91.000000 9.539392
23.902738 89.000000 9.433981
23.931345 84.000000 9.165151
23.959951 89.000000 9.433981
23.988557 84.000000 9.165151
24.017164 78.000000 8.831761
24.045770 89.000000 9.433981
24.074377 83.000000 9.110434
24.102983 74.000000 8.602325
24.131590 85.000000 9.219544
24.160196 106.000000 10.295630
24.188803 96.000000 9.797959
24.217409 99.000000 9.949874
24.246016 91.000000 9.539392
24.274622 102.000000 10.099505
24.303228 101.000000 10.049876
24.331835 88.000000 9.380832
24.360441 92.000000 9.591663
24.389048 113.000000 10.630146
24.417654 116.000000 10.770330
24.446261 149.000000 12.206556
24.474867 169.000000 13.000000
24.503474 240.000000 15.491933
24.532080 336.000000 18.330303
24.560687 470.000000 21.679483
24.589293 480.000000 21.908902
24.617899 414.000000 20.346990
24.646506 328.000000 18.110770
24.675112 234.000000 15.297059
24.703719 174.000000 13.190906
24.732325 137.000000 11.704700
24.760932 100.000000 10.000000
24.789538 129.000000 11.357817
24.818145 99.000000 9.949874
24.846751 109.000000 10.440307
24.875358 91.000000 9.539392
24.903964 95.000000 9.746794
24.932570 94.000000 9.695360
24.961177 84.000000 9.165151
24.989783 78.000000 8.831761
25.018390 86.000000 9.273618
25.046996 81.000000 9.000000
25.075603 87.000000 9.327379
25.104209 59.000000 7.681146
25.132816 83.000000 9.110434
25.161422 90.000000 9.486833
25.190029 81.000000 9.000000
25.218635 74.000000 8.602325
25.247242 78.000000 8.831761
25.275848 87.000000 9.327379
25.304454 71.000000 8.426150
25.333061 79.000000 8.888194
25.361667 90.000000 9.486833
25.390274 67.000000 8.185353
25.418880 85.000000 9.219544
25.447487 85.000000 9.219544
25.476093 97.000000 9.848858
25.504700 112.000000 10.583005
25.533306 115.000000 10.723805
25.561913 145.000000 12.041595
25.590519 158.000000 12.569805
25.619125 189.000000 13.747727
25.647732 202.000000 14.212670
25.676338 224.000000 14.966630
25.704945 192.000000 13.856406
25.733551 189.000000 13.747727
25.762158 161.000000 12.688578
25.790764 147.000000 12.124356
25.819371 155.000000 12.449900
25.847977 144.000000 12.000000
25.876584 120.000000 10.954451
25.905190 125.000000 11.180340
25.933796 102.000000 10.099505
25.962403 102.000000 10.099505
25.991009 108.000000 10.392305
26.019616 95.000000 9.746794
26.048222 89.000000 9.433981
26.076829 89.000000 9.433981
26.105435 100.000000 10.000000
26.134042 87.000000 9.327379
26.162648 99.000000 9.949874
26.191255 88.000000 9.380832
26.219861 90.000000 9.486833
26.248468 96.000000 9.797959
26.277074 94.000000 9.695360
26.305680 114.000000 10.677078
26.334287 117.000000 10.816654
26.362893 136.000000 11.661904
26.391500 145.000000 12.041595
26.420106 139.000000 11.789826
26.448713 173.000000 13.152946
26.477319 202.000000 14.212670
26.505926 161.000000 12.688578
26.534532 158.000000 12.569805
26.563139 157.000000 12.529964
26.591745 113.000000 10.630146
26.620351 107.000000 10.344080
26.648958 91.000000 9.539392
26.677564 74.000000 8.602325
26.706171 76.000000 8.717798
26.734777 72.000000 8.485281
26.763384 72.000000 8.485281
26.791990 95.000000 9.746794
26.820597 67.000000 8.185353
26.849203 84.000000 9.165151
26.877810 78.000000 8.831761
26.906416 61.000000 7.810250
26.935022 60.000000 7.745967
26.963629 77.000000 8.774964
26.992235 67.000000 8.185353
27.020842 78.000000 8.831761
27.049448 66.000000 8.124038
27.078055 55.000000 7.416198
27.106661 72.000000 8.485281
27.135268 65.000000 8.062258
27.163874 61.000000 7.810250
27.192481 62.000000 7.874008
27.221087 59.000000 7.681146
27.249694 79.000000 8.888194
27.278300 60.000000 7.745967
27.306906 51.000000 7.141428
27.335513 73.000000 8.544004
27.364119 58.000000 7.615773
27.392726 61.000000 7.810250
27.421332 58.000000 7.615773
27.449939 70.000000 8.366600
27.478545 62.000000 7.874008
27.507152 55.000000 7.416198
27.535758 59.000000 7.681146
27.564365 58.000000 7.615773
27.592971 50.000000 7.071068
27.621577 47.000000 6.855655
27.650184 60.000000 7.745967
27.678790 76.000000 8.717798
27.707397 57.000000 7.549834
27.736003 59.000000 7.681146
27.764610 74.000000 8.602325
27.793216 78.000000 8.831761
27.821823 68.000000 8.246211
27.850429 59.000000 7.681146
27.879036 71.000000 8.426150
27.907642 78.000000 8.831761
27.936248 55.000000 7.416198
27.964855 48.000000 6.928203
27.993461 65.000000 8.062258
28.022068 56.000000 7.483315
28.050674 63.000000 7.937254
28.079281 70.000000 8.366600
28.107887 50.000000 7.071068
28.136494 49.000000 7.000000
28.165100 52.000000 7.211103
28.193707 62.000000 7.874008
28.222313 71.000000 8.426150
28.250919 60.000000 7.745967
28.279526 55.000000 7.416198
28.308132 51.000000 7.141428
28.336739 58.000000 7.615773
28.365345 45.000000 6.708204
28.393952 51.000000 7.141428
28.422558 69.000000 8.306624
28.451165 61.000000 7.810250
28.479771 65.000000 8.062258
28.508378 57.000000 7.549834
28.536984 46.000000 6.782330
28.565591 59.000000 7.681146
28.594197 60.000000 7.745967
28.622803 60.000000 7.745967
28.651410 57.000000 7.549834
28.680016 69.000000 8.306624
28.708623 47.000000 6.855655
